Date:	2023-08-21		
Time:	15:26		
Sample name:	MST1B		
Position:	268.000049	mm	
Sample surface:	6.095026	cm	
Tube anode:	Mo		
Tube voltage:	30	kV	
Tube current:	30	mA	
Comments	not in position		
Gain	0.060000		
peaking_time	1.500000	m-sec	
trigger_threshold	653.076172	V	
mca_bin_width	17.500000	no:	
number_mca_channels	1024.000000	no:	
gap_time	0.080000	m-sec	
trigger_peaking_time	0.060000	m-sec	
livetime	6.114543	seconds	
runtime	10.007651	seconds	
input_count_rate	67971.011228	cps	
output_count_rate	41530.325646	cps	
triggers	0	seconds	
events_in_run	0	seconds	
channel	content		
 1.00	 0.00
 2.00	 0.00
 3.00	 0.00
 4.00	 0.00
 5.00	 0.00
 6.00	 0.00
 7.00	 0.00
 8.00	 0.00
 9.00	 0.00
10.00	 0.00
11.00	 0.00
12.00	 0.00
13.00	 0.00
14.00	 0.00
15.00	 0.00
16.00	 0.00
17.00	 0.00
18.00	 0.00
19.00	 0.00
20.00	 0.00
21.00	 0.00
22.00	 0.00
23.00	 0.00
24.00	 0.00
25.00	 0.00
26.00	 0.00
27.00	 0.00
28.00	 0.00
29.00	 0.00
30.00	 0.00
31.00	 1.00
32.00	 1.00
33.00	 2.00
34.00	 1.00
35.00	 1.00
36.00	 8.00
37.00	 4.00
38.00	10.00
39.00	13.00
40.00	16.00
41.00	34.00
42.00	51.00
43.00	60.00
44.00	75.00
45.00	92.00
46.00	126.00
47.00	151.00
48.00	218.00
49.00	303.00
50.00	354.00
51.00	467.00
52.00	545.00
53.00	709.00
54.00	822.00
55.00	965.00
56.00	1153.00
57.00	1245.00
58.00	1474.00
59.00	1705.00
60.00	1795.00
61.00	1973.00
62.00	2147.00
63.00	2266.00
64.00	2508.00
65.00	2544.00
66.00	2700.00
67.00	2734.00
68.00	2846.00
69.00	2950.00
70.00	3016.00
71.00	2872.00
72.00	2957.00
73.00	2947.00
74.00	2930.00
75.00	2936.00
76.00	2839.00
77.00	2890.00
78.00	2902.00
79.00	2819.00
80.00	2940.00
81.00	2768.00
82.00	2929.00
83.00	2853.00
84.00	2788.00
85.00	2883.00
86.00	2841.00
87.00	2754.00
88.00	2726.00
89.00	2685.00
90.00	2481.00
91.00	2387.00
92.00	2331.00
93.00	2279.00
94.00	2255.00
95.00	2218.00
96.00	2141.00
97.00	2093.00
98.00	2090.00
99.00	2086.00
100.00	2125.00
101.00	2055.00
102.00	2002.00
103.00	2034.00
104.00	1942.00
105.00	1977.00
106.00	1967.00
107.00	1905.00
108.00	2015.00
109.00	1985.00
110.00	2031.00
111.00	1854.00
112.00	1799.00
113.00	1864.00
114.00	1822.00
115.00	1814.00
116.00	1719.00
117.00	1743.00
118.00	1684.00
119.00	1662.00
120.00	1591.00
121.00	1609.00
122.00	1474.00
123.00	1640.00
124.00	1513.00
125.00	1462.00
126.00	1460.00
127.00	1448.00
128.00	1481.00
129.00	1473.00
130.00	1511.00
131.00	1534.00
132.00	1471.00
133.00	1531.00
134.00	1493.00
135.00	1447.00
136.00	1362.00
137.00	1291.00
138.00	1259.00
139.00	1276.00
140.00	1204.00
141.00	1168.00
142.00	1089.00
143.00	1143.00
144.00	1110.00
145.00	1030.00
146.00	1021.00
147.00	1104.00
148.00	1067.00
149.00	1102.00
150.00	1050.00
151.00	1094.00
152.00	1055.00
153.00	1039.00
154.00	1043.00
155.00	955.00
156.00	896.00
157.00	925.00
158.00	882.00
159.00	884.00
160.00	937.00
161.00	969.00
162.00	1127.00
163.00	1054.00
164.00	1260.00
165.00	1423.00
166.00	1765.00
167.00	2042.00
168.00	2297.00
169.00	2470.00
170.00	2655.00
171.00	2686.00
172.00	2553.00
173.00	2240.00
174.00	1804.00
175.00	1636.00
176.00	1304.00
177.00	1131.00
178.00	1026.00
179.00	929.00
180.00	948.00
181.00	913.00
182.00	936.00
183.00	1003.00
184.00	948.00
185.00	968.00
186.00	888.00
187.00	963.00
188.00	857.00
189.00	908.00
190.00	884.00
191.00	798.00
192.00	785.00
193.00	811.00
194.00	756.00
195.00	777.00
196.00	727.00
197.00	742.00
198.00	728.00
199.00	693.00
200.00	731.00
201.00	753.00
202.00	796.00
203.00	820.00
204.00	926.00
205.00	937.00
206.00	1183.00
207.00	1447.00
208.00	1712.00
209.00	2039.00
210.00	2369.00
211.00	2478.00
212.00	2583.00
213.00	2593.00
214.00	2334.00
215.00	2192.00
216.00	1869.00
217.00	1515.00
218.00	1147.00
219.00	985.00
220.00	893.00
221.00	840.00
222.00	760.00
223.00	819.00
224.00	782.00
225.00	831.00
226.00	882.00
227.00	950.00
228.00	945.00
229.00	962.00
230.00	1004.00
231.00	986.00
232.00	1006.00
233.00	907.00
234.00	1011.00
235.00	830.00
236.00	819.00
237.00	802.00
238.00	724.00
239.00	808.00
240.00	726.00
241.00	765.00
242.00	752.00
243.00	742.00
244.00	747.00
245.00	778.00
246.00	742.00
247.00	805.00
248.00	729.00
249.00	801.00
250.00	816.00
251.00	889.00
252.00	847.00
253.00	858.00
254.00	994.00
255.00	1003.00
256.00	1055.00
257.00	1118.00
258.00	1167.00
259.00	1158.00
260.00	1178.00
261.00	1157.00
262.00	1047.00
263.00	1127.00
264.00	1035.00
265.00	1061.00
266.00	1041.00
267.00	990.00
268.00	1007.00
269.00	1068.00
270.00	1012.00
271.00	1072.00
272.00	1116.00
273.00	1140.00
274.00	1116.00
275.00	1138.00
276.00	1225.00
277.00	1221.00
278.00	1199.00
279.00	1287.00
280.00	1290.00
281.00	1311.00
282.00	1354.00
283.00	1331.00
284.00	1394.00
285.00	1364.00
286.00	1438.00
287.00	1361.00
288.00	1492.00
289.00	1425.00
290.00	1431.00
291.00	1587.00
292.00	1502.00
293.00	1547.00
294.00	1568.00
295.00	1629.00
296.00	1597.00
297.00	1542.00
298.00	1695.00
299.00	1673.00
300.00	1808.00
301.00	1815.00
302.00	1801.00
303.00	1893.00
304.00	1850.00
305.00	1951.00
306.00	1990.00
307.00	1995.00
308.00	2052.00
309.00	2156.00
310.00	2212.00
311.00	2197.00
312.00	2115.00
313.00	2234.00
314.00	2214.00
315.00	2202.00
316.00	2302.00
317.00	2205.00
318.00	2233.00
319.00	2361.00
320.00	2364.00
321.00	2327.00
322.00	2376.00
323.00	2452.00
324.00	2508.00
325.00	2650.00
326.00	2660.00
327.00	2596.00
328.00	2628.00
329.00	2811.00
330.00	2813.00
331.00	2792.00
332.00	2816.00
333.00	2948.00
334.00	2958.00
335.00	2984.00
336.00	3057.00
337.00	3111.00
338.00	3149.00
339.00	3201.00
340.00	3185.00
341.00	3222.00
342.00	3199.00
343.00	3326.00
344.00	3265.00
345.00	3368.00
346.00	3370.00
347.00	3388.00
348.00	3436.00
349.00	3561.00
350.00	3604.00
351.00	3641.00
352.00	3787.00
353.00	3754.00
354.00	3757.00
355.00	3957.00
356.00	4030.00
357.00	4190.00
358.00	4187.00
359.00	4541.00
360.00	4630.00
361.00	5001.00
362.00	5438.00
363.00	5795.00
364.00	6105.00
365.00	6393.00
366.00	6598.00
367.00	6599.00
368.00	6639.00
369.00	6433.00
370.00	6250.00
371.00	6124.00
372.00	5899.00
373.00	5597.00
374.00	5289.00
375.00	5257.00
376.00	5311.00
377.00	5189.00
378.00	5119.00
379.00	5310.00
380.00	5313.00
381.00	5418.00
382.00	5367.00
383.00	5630.00
384.00	5664.00
385.00	5815.00
386.00	5720.00
387.00	5810.00
388.00	5924.00
389.00	6023.00
390.00	6121.00
391.00	6153.00
392.00	6354.00
393.00	6325.00
394.00	6521.00
395.00	6407.00
396.00	6608.00
397.00	6857.00
398.00	6815.00
399.00	6953.00
400.00	7187.00
401.00	7106.00
402.00	7480.00
403.00	7493.00
404.00	7610.00
405.00	7848.00
406.00	7673.00
407.00	7803.00
408.00	7963.00
409.00	7826.00
410.00	7974.00
411.00	8086.00
412.00	8083.00
413.00	8197.00
414.00	8126.00
415.00	8234.00
416.00	8463.00
417.00	8697.00
418.00	8743.00
419.00	9130.00
420.00	9464.00
421.00	9663.00
422.00	10033.00
423.00	10557.00
424.00	11034.00
425.00	11559.00
426.00	12155.00
427.00	12314.00
428.00	12826.00
429.00	12704.00
430.00	12417.00
431.00	12189.00
432.00	12142.00
433.00	11712.00
434.00	11395.00
435.00	11225.00
436.00	10732.00
437.00	10783.00
438.00	10913.00
439.00	10765.00
440.00	11044.00
441.00	10869.00
442.00	11252.00
443.00	11183.00
444.00	11291.00
445.00	11475.00
446.00	11569.00
447.00	11818.00
448.00	11770.00
449.00	11799.00
450.00	11939.00
451.00	12327.00
452.00	12239.00
453.00	12630.00
454.00	12750.00
455.00	12941.00
456.00	13217.00
457.00	13732.00
458.00	13823.00
459.00	14243.00
460.00	14131.00
461.00	14715.00
462.00	15197.00
463.00	15138.00
464.00	15440.00
465.00	15786.00
466.00	15895.00
467.00	16062.00
468.00	16079.00
469.00	16254.00
470.00	16614.00
471.00	16559.00
472.00	16788.00
473.00	16482.00
474.00	16719.00
475.00	16576.00
476.00	17022.00
477.00	16851.00
478.00	17235.00
479.00	17142.00
480.00	17266.00
481.00	17172.00
482.00	16976.00
483.00	17123.00
484.00	16945.00
485.00	16565.00
486.00	16716.00
487.00	16513.00
488.00	16402.00
489.00	16262.00
490.00	16260.00
491.00	16222.00
492.00	16771.00
493.00	16815.00
494.00	16789.00
495.00	17002.00
496.00	17058.00
497.00	17206.00
498.00	17267.00
499.00	17448.00
500.00	17627.00
501.00	17485.00
502.00	17595.00
503.00	17933.00
504.00	18112.00
505.00	18093.00
506.00	18235.00
507.00	18512.00
508.00	18656.00
509.00	18768.00
510.00	19008.00
511.00	19060.00
512.00	19110.00
513.00	19514.00
514.00	19128.00
515.00	19682.00
516.00	19729.00
517.00	19793.00
518.00	20100.00
519.00	20056.00
520.00	20508.00
521.00	20643.00
522.00	20820.00
523.00	20943.00
524.00	21421.00
525.00	21367.00
526.00	22033.00
527.00	22195.00
528.00	22245.00
529.00	22561.00
530.00	22744.00
531.00	23283.00
532.00	23334.00
533.00	23652.00
534.00	23968.00
535.00	23908.00
536.00	24370.00
537.00	24560.00
538.00	24418.00
539.00	24761.00
540.00	24664.00
541.00	25251.00
542.00	24913.00
543.00	25419.00
544.00	25732.00
545.00	25820.00
546.00	25895.00
547.00	25957.00
548.00	26347.00
549.00	26878.00
550.00	26558.00
551.00	26786.00
552.00	27470.00
553.00	27075.00
554.00	27650.00
555.00	27401.00
556.00	27257.00
557.00	27735.00
558.00	27456.00
559.00	27225.00
560.00	27384.00
561.00	27513.00
562.00	27416.00
563.00	27308.00
564.00	27443.00
565.00	28020.00
566.00	27715.00
567.00	28039.00
568.00	27881.00
569.00	28264.00
570.00	28376.00
571.00	28440.00
572.00	28629.00
573.00	28554.00
574.00	28698.00
575.00	29373.00
576.00	29168.00
577.00	28884.00
578.00	29331.00
579.00	29378.00
580.00	29212.00
581.00	29395.00
582.00	29990.00
583.00	30053.00
584.00	30076.00
585.00	29900.00
586.00	30122.00
587.00	30351.00
588.00	30436.00
589.00	30469.00
590.00	31084.00
591.00	30670.00
592.00	31278.00
593.00	31338.00
594.00	31411.00
595.00	31478.00
596.00	31748.00
597.00	31811.00
598.00	31823.00
599.00	31858.00
600.00	32428.00
601.00	32693.00
602.00	32482.00
603.00	33148.00
604.00	33214.00
605.00	33203.00
606.00	33464.00
607.00	33564.00
608.00	33833.00
609.00	33660.00
610.00	33825.00
611.00	34223.00
612.00	34395.00
613.00	34712.00
614.00	35182.00
615.00	34533.00
616.00	35325.00
617.00	35527.00
618.00	35505.00
619.00	35650.00
620.00	35521.00
621.00	36112.00
622.00	35934.00
623.00	36215.00
624.00	36130.00
625.00	36597.00
626.00	36911.00
627.00	37071.00
628.00	37005.00
629.00	37227.00
630.00	37268.00
631.00	37698.00
632.00	37300.00
633.00	37841.00
634.00	37958.00
635.00	38127.00
636.00	38365.00
637.00	38305.00
638.00	38733.00
639.00	38954.00
640.00	38780.00
641.00	38792.00
642.00	39335.00
643.00	39328.00
644.00	39531.00
645.00	39799.00
646.00	39875.00
647.00	39900.00
648.00	40052.00
649.00	40071.00
650.00	40123.00
651.00	40949.00
652.00	40723.00
653.00	41010.00
654.00	41222.00
655.00	40987.00
656.00	41642.00
657.00	41778.00
658.00	41961.00
659.00	41742.00
660.00	42218.00
661.00	42254.00
662.00	42647.00
663.00	42093.00
664.00	42994.00
665.00	43221.00
666.00	43565.00
667.00	43954.00
668.00	44456.00
669.00	45918.00
670.00	47037.00
671.00	48268.00
672.00	50400.00
673.00	52952.00
674.00	55960.00
675.00	59481.00
676.00	62836.00
677.00	66541.00
678.00	70117.00
679.00	72993.00
680.00	75194.00
681.00	76734.00
682.00	76279.00
683.00	75478.00
684.00	73650.00
685.00	70241.00
686.00	67168.00
687.00	63598.00
688.00	60615.00
689.00	56783.00
690.00	54064.00
691.00	52050.00
692.00	50246.00
693.00	49294.00
694.00	48016.00
695.00	47749.00
696.00	47235.00
697.00	47597.00
698.00	47645.00
699.00	47544.00
700.00	47686.00
701.00	47075.00
702.00	47285.00
703.00	47901.00
704.00	47553.00
705.00	47855.00
706.00	48254.00
707.00	48334.00
708.00	48608.00
709.00	48686.00
710.00	48532.00
711.00	48726.00
712.00	49233.00
713.00	48926.00
714.00	49500.00
715.00	49425.00
716.00	49516.00
717.00	49959.00
718.00	49851.00
719.00	49967.00
720.00	50046.00
721.00	50169.00
722.00	49839.00
723.00	50114.00
724.00	50626.00
725.00	50770.00
726.00	50724.00
727.00	50448.00
728.00	50943.00
729.00	50954.00
730.00	51113.00
731.00	51236.00
732.00	51547.00
733.00	51607.00
734.00	51472.00
735.00	51474.00
736.00	51654.00
737.00	51480.00
738.00	51783.00
739.00	52452.00
740.00	52392.00
741.00	52043.00
742.00	52331.00
743.00	52411.00
744.00	52554.00
745.00	52317.00
746.00	52652.00
747.00	52951.00
748.00	53214.00
749.00	53546.00
750.00	54188.00
751.00	54249.00
752.00	55186.00
753.00	55349.00
754.00	56395.00
755.00	57286.00
756.00	57846.00
757.00	58602.00
758.00	58976.00
759.00	59422.00
760.00	59755.00
761.00	60151.00
762.00	59512.00
763.00	59170.00
764.00	59015.00
765.00	58732.00
766.00	57615.00
767.00	57008.00
768.00	56921.00
769.00	56140.00
770.00	56128.00
771.00	56007.00
772.00	55381.00
773.00	55287.00
774.00	55006.00
775.00	55042.00
776.00	55502.00
777.00	55521.00
778.00	55343.00
779.00	55542.00
780.00	54881.00
781.00	55286.00
782.00	55155.00
783.00	54669.00
784.00	55193.00
785.00	55276.00
786.00	55325.00
787.00	56107.00
788.00	55456.00
789.00	55553.00
790.00	55518.00
791.00	55933.00
792.00	56130.00
793.00	55912.00
794.00	55976.00
795.00	55924.00
796.00	56498.00
797.00	56591.00
798.00	56794.00
799.00	56920.00
800.00	57257.00
801.00	57052.00
802.00	57674.00
803.00	57215.00
804.00	57935.00
805.00	58024.00
806.00	58321.00
807.00	58904.00
808.00	58884.00
809.00	58805.00
810.00	58936.00
811.00	58922.00
812.00	58705.00
813.00	58297.00
814.00	58461.00
815.00	57885.00
816.00	57930.00
817.00	57930.00
818.00	57667.00
819.00	58173.00
820.00	57825.00
821.00	58294.00
822.00	57531.00
823.00	57966.00
824.00	57822.00
825.00	58012.00
826.00	57864.00
827.00	57789.00
828.00	57545.00
829.00	58375.00
830.00	58341.00
831.00	58550.00
832.00	58313.00
833.00	58598.00
834.00	58509.00
835.00	58355.00
836.00	58698.00
837.00	58670.00
838.00	58409.00
839.00	58678.00
840.00	59203.00
841.00	59347.00
842.00	59343.00
843.00	59525.00
844.00	58813.00
845.00	59383.00
846.00	59307.00
847.00	59272.00
848.00	59436.00
849.00	59268.00
850.00	59350.00
851.00	59610.00
852.00	59987.00
853.00	60097.00
854.00	59755.00
855.00	60367.00
856.00	60181.00
857.00	59953.00
858.00	60605.00
859.00	60397.00
860.00	60519.00
861.00	60823.00
862.00	60993.00
863.00	60962.00
864.00	60705.00
865.00	61130.00
866.00	61210.00
867.00	61085.00
868.00	61638.00
869.00	62127.00
870.00	61758.00
871.00	61869.00
872.00	62451.00
873.00	62333.00
874.00	62633.00
875.00	62375.00
876.00	63119.00
877.00	63189.00
878.00	63489.00
879.00	63192.00
880.00	63437.00
881.00	64372.00
882.00	64541.00
883.00	64506.00
884.00	64671.00
885.00	65602.00
886.00	65283.00
887.00	66338.00
888.00	66028.00
889.00	67093.00
890.00	67353.00
891.00	68101.00
892.00	68592.00
893.00	68429.00
894.00	69341.00
895.00	69663.00
896.00	70282.00
897.00	71046.00
898.00	71807.00
899.00	72932.00
900.00	73799.00
901.00	74125.00
902.00	75634.00
903.00	77186.00
904.00	77810.00
905.00	79236.00
906.00	80559.00
907.00	82271.00
908.00	83616.00
909.00	85779.00
910.00	87776.00
911.00	89960.00
912.00	92388.00
913.00	95186.00
914.00	98064.00
915.00	101508.00
916.00	105047.00
917.00	109879.00
918.00	114016.00
919.00	119894.00
920.00	125909.00
921.00	131898.00
922.00	138578.00
923.00	146738.00
924.00	154385.00
925.00	163187.00
926.00	171500.00
927.00	180844.00
928.00	188779.00
929.00	200024.00
930.00	208663.00
931.00	218126.00
932.00	227987.00
933.00	236095.00
934.00	243871.00
935.00	250322.00
936.00	256643.00
937.00	261374.00
938.00	265069.00
939.00	267972.00
940.00	269712.00
941.00	269966.00
942.00	268251.00
943.00	266394.00
944.00	262259.00
945.00	256956.00
946.00	250710.00
947.00	244520.00
948.00	236340.00
949.00	228440.00
950.00	219619.00
951.00	209653.00
952.00	199814.00
953.00	191086.00
954.00	180155.00
955.00	170840.00
956.00	161399.00
957.00	153570.00
958.00	143644.00
959.00	135317.00
960.00	128565.00
961.00	121474.00
962.00	114317.00
963.00	107902.00
964.00	102166.00
965.00	97330.00
966.00	91592.00
967.00	87401.00
968.00	83376.00
969.00	79564.00
970.00	76776.00
971.00	73956.00
972.00	71564.00
973.00	68487.00
974.00	67202.00
975.00	65280.00
976.00	64163.00
977.00	62555.00
978.00	62198.00
979.00	61253.00
980.00	61513.00
981.00	61413.00
982.00	62486.00
983.00	63604.00
984.00	65666.00
985.00	67750.00
986.00	70927.00
987.00	74288.00
988.00	78395.00
989.00	83877.00
990.00	89317.00
991.00	94477.00
992.00	98888.00
993.00	103392.00
994.00	108352.00
995.00	110759.00
996.00	112519.00
997.00	112846.00
998.00	112081.00
999.00	110083.00
1000.00	106857.00
1001.00	101772.00
1002.00	96782.00
1003.00	90063.00
1004.00	83845.00
1005.00	77768.00
1006.00	72117.00
1007.00	66301.00
1008.00	61467.00
1009.00	57734.00
1010.00	54603.00
1011.00	52255.00
1012.00	49735.00
1013.00	48695.00
1014.00	47490.00
1015.00	46786.00
1016.00	46701.00
1017.00	46417.00
1018.00	46860.00
1019.00	46658.00
1020.00	47276.00
1021.00	46633.00
1022.00	47252.00
1023.00	47413.00
1024.00	48150.00
