Date:	2023-08-24		
Time:	16:13		
Sample name:	MI1H_I_J		
Position:	1618.000049	mm	
Sample surface:	4.853562	cm	
Tube anode:	Mo		
Tube voltage:	30	kV	
Tube current:	30	mA	
Comments	not in position		
Gain	0.060000		
peaking_time	1.500000	m-sec	
trigger_threshold	653.076172	V	
mca_bin_width	17.500000	no:	
number_mca_channels	1024.000000	no:	
gap_time	0.080000	m-sec	
trigger_peaking_time	0.060000	m-sec	
livetime	7.298111	seconds	
runtime	10.007098	seconds	
input_count_rate	43657.668445	cps	
output_count_rate	31840.100152	cps	
triggers	0	seconds	
events_in_run	0	seconds	
channel	content		
 1.00	 0.00
 2.00	 0.00
 3.00	 0.00
 4.00	 0.00
 5.00	 0.00
 6.00	 0.00
 7.00	 0.00
 8.00	 0.00
 9.00	 0.00
10.00	 0.00
11.00	 0.00
12.00	 0.00
13.00	 0.00
14.00	 0.00
15.00	 0.00
16.00	 0.00
17.00	 0.00
18.00	 0.00
19.00	 0.00
20.00	 0.00
21.00	 0.00
22.00	 0.00
23.00	 0.00
24.00	 0.00
25.00	 0.00
26.00	 0.00
27.00	 0.00
28.00	 0.00
29.00	 0.00
30.00	 0.00
31.00	 5.00
32.00	 3.00
33.00	 5.00
34.00	 5.00
35.00	 8.00
36.00	10.00
37.00	11.00
38.00	27.00
39.00	38.00
40.00	74.00
41.00	63.00
42.00	110.00
43.00	149.00
44.00	200.00
45.00	257.00
46.00	421.00
47.00	495.00
48.00	659.00
49.00	784.00
50.00	1062.00
51.00	1351.00
52.00	1630.00
53.00	2026.00
54.00	2332.00
55.00	2838.00
56.00	3262.00
57.00	3747.00
58.00	4252.00
59.00	4742.00
60.00	5256.00
61.00	5627.00
62.00	6213.00
63.00	6472.00
64.00	6986.00
65.00	7345.00
66.00	7655.00
67.00	7936.00
68.00	8268.00
69.00	8294.00
70.00	8353.00
71.00	8425.00
72.00	8511.00
73.00	8461.00
74.00	8384.00
75.00	8243.00
76.00	8281.00
77.00	8030.00
78.00	7980.00
79.00	8054.00
80.00	8277.00
81.00	8480.00
82.00	8599.00
83.00	8843.00
84.00	9193.00
85.00	8986.00
86.00	9301.00
87.00	8758.00
88.00	8544.00
89.00	8098.00
90.00	7494.00
91.00	7309.00
92.00	7108.00
93.00	6972.00
94.00	6946.00
95.00	7027.00
96.00	7384.00
97.00	7528.00
98.00	8088.00
99.00	8549.00
100.00	8753.00
101.00	8690.00
102.00	8367.00
103.00	8152.00
104.00	7587.00
105.00	7134.00
106.00	6985.00
107.00	6883.00
108.00	6679.00
109.00	6687.00
110.00	6850.00
111.00	6799.00
112.00	6863.00
113.00	6848.00
114.00	6633.00
115.00	6420.00
116.00	6303.00
117.00	6024.00
118.00	5716.00
119.00	5510.00
120.00	5274.00
121.00	4969.00
122.00	5012.00
123.00	4711.00
124.00	4960.00
125.00	4905.00
126.00	5137.00
127.00	5551.00
128.00	6008.00
129.00	6425.00
130.00	7234.00
131.00	7493.00
132.00	8009.00
133.00	8241.00
134.00	7731.00
135.00	7248.00
136.00	6607.00
137.00	5848.00
138.00	5317.00
139.00	4783.00
140.00	4463.00
141.00	4382.00
142.00	4303.00
143.00	4399.00
144.00	4699.00
145.00	5062.00
146.00	5541.00
147.00	6424.00
148.00	7148.00
149.00	8031.00
150.00	8604.00
151.00	9014.00
152.00	8891.00
153.00	8681.00
154.00	8095.00
155.00	7708.00
156.00	7505.00
157.00	7391.00
158.00	7359.00
159.00	7315.00
160.00	7288.00
161.00	6932.00
162.00	6709.00
163.00	6562.00
164.00	6933.00
165.00	7429.00
166.00	8705.00
167.00	9857.00
168.00	11157.00
169.00	12403.00
170.00	12846.00
171.00	12689.00
172.00	11658.00
173.00	10087.00
174.00	8197.00
175.00	6644.00
176.00	5566.00
177.00	4697.00
178.00	4173.00
179.00	3990.00
180.00	3994.00
181.00	4255.00
182.00	4382.00
183.00	4927.00
184.00	5183.00
185.00	5538.00
186.00	6032.00
187.00	6569.00
188.00	7195.00
189.00	7648.00
190.00	7890.00
191.00	7693.00
192.00	7196.00
193.00	6572.00
194.00	5579.00
195.00	4945.00
196.00	4033.00
197.00	3700.00
198.00	3490.00
199.00	3410.00
200.00	3698.00
201.00	4480.00
202.00	5969.00
203.00	8571.00
204.00	12614.00
205.00	19249.00
206.00	28344.00
207.00	40408.00
208.00	54948.00
209.00	70450.00
210.00	84879.00
211.00	95759.00
212.00	100325.00
213.00	97024.00
214.00	88650.00
215.00	74480.00
216.00	58459.00
217.00	43343.00
218.00	29655.00
219.00	20140.00
220.00	13246.00
221.00	9259.00
222.00	7162.00
223.00	6918.00
224.00	7602.00
225.00	9162.00
226.00	11165.00
227.00	13838.00
228.00	16433.00
229.00	18457.00
230.00	19900.00
231.00	19636.00
232.00	18672.00
233.00	16844.00
234.00	14218.00
235.00	11470.00
236.00	9036.00
237.00	7117.00
238.00	5576.00
239.00	4521.00
240.00	3863.00
241.00	3691.00
242.00	3579.00
243.00	3802.00
244.00	4177.00
245.00	4961.00
246.00	6547.00
247.00	9449.00
248.00	14725.00
249.00	23697.00
250.00	39515.00
251.00	63731.00
252.00	99458.00
253.00	148767.00
254.00	209785.00
255.00	279524.00
256.00	351294.00
257.00	412769.00
258.00	454302.00
259.00	466681.00
260.00	448541.00
261.00	402263.00
262.00	337459.00
263.00	265668.00
264.00	196022.00
265.00	138205.00
266.00	92615.00
267.00	60733.00
268.00	39138.00
269.00	26410.00
270.00	18878.00
271.00	15146.00
272.00	13833.00
273.00	14393.00
274.00	16762.00
275.00	20923.00
276.00	27478.00
277.00	35778.00
278.00	47413.00
279.00	58930.00
280.00	71194.00
281.00	83607.00
282.00	91759.00
283.00	94948.00
284.00	92846.00
285.00	85354.00
286.00	74427.00
287.00	61184.00
288.00	48156.00
289.00	35819.00
290.00	25882.00
291.00	18741.00
292.00	13748.00
293.00	10839.00
294.00	9211.00
295.00	8175.00
296.00	7985.00
297.00	8065.00
298.00	8106.00
299.00	8580.00
300.00	8734.00
301.00	9041.00
302.00	9426.00
303.00	9742.00
304.00	10243.00
305.00	10496.00
306.00	11142.00
307.00	11446.00
308.00	12155.00
309.00	12672.00
310.00	12560.00
311.00	12862.00
312.00	12700.00
313.00	12226.00
314.00	11855.00
315.00	11405.00
316.00	10988.00
317.00	10469.00
318.00	10158.00
319.00	9831.00
320.00	9669.00
321.00	9687.00
322.00	9844.00
323.00	9845.00
324.00	9962.00
325.00	10215.00
326.00	10539.00
327.00	10698.00
328.00	10851.00
329.00	11756.00
330.00	12341.00
331.00	13133.00
332.00	14351.00
333.00	15734.00
334.00	17484.00
335.00	19040.00
336.00	20465.00
337.00	21860.00
338.00	22065.00
339.00	21961.00
340.00	21485.00
341.00	20598.00
342.00	19357.00
343.00	18070.00
344.00	16915.00
345.00	16115.00
346.00	15802.00
347.00	15662.00
348.00	15977.00
349.00	16484.00
350.00	17738.00
351.00	19770.00
352.00	22782.00
353.00	28753.00
354.00	39761.00
355.00	58029.00
356.00	90731.00
357.00	143766.00
358.00	224735.00
359.00	344091.00
360.00	508329.00
361.00	719134.00
362.00	967016.00
363.00	1236246.00
364.00	1499359.00
365.00	1716470.00
366.00	1859217.00
367.00	1902974.00
368.00	1840596.00
369.00	1678355.00
370.00	1446349.00
371.00	1178264.00
372.00	906686.00
373.00	663823.00
374.00	460613.00
375.00	305022.00
376.00	194436.00
377.00	122542.00
378.00	77408.00
379.00	51069.00
380.00	36855.00
381.00	29754.00
382.00	26388.00
383.00	25074.00
384.00	24983.00
385.00	25004.00
386.00	25416.00
387.00	26366.00
388.00	27183.00
389.00	29082.00
390.00	31292.00
391.00	33966.00
392.00	39174.00
393.00	46012.00
394.00	55715.00
395.00	69190.00
396.00	88697.00
397.00	114761.00
398.00	146914.00
399.00	185045.00
400.00	227446.00
401.00	269229.00
402.00	306518.00
403.00	333674.00
404.00	347547.00
405.00	343507.00
406.00	323145.00
407.00	290073.00
408.00	248771.00
409.00	204360.00
410.00	160432.00
411.00	123299.00
412.00	92111.00
413.00	68854.00
414.00	52285.00
415.00	41602.00
416.00	35047.00
417.00	31720.00
418.00	29912.00
419.00	29582.00
420.00	30434.00
421.00	31609.00
422.00	33114.00
423.00	35183.00
424.00	37240.00
425.00	39586.00
426.00	41363.00
427.00	42775.00
428.00	42913.00
429.00	43298.00
430.00	42632.00
431.00	41470.00
432.00	39692.00
433.00	37936.00
434.00	36953.00
435.00	35368.00
436.00	34747.00
437.00	33921.00
438.00	33173.00
439.00	33292.00
440.00	33369.00
441.00	33656.00
442.00	33452.00
443.00	33612.00
444.00	34324.00
445.00	34865.00
446.00	34786.00
447.00	35049.00
448.00	35748.00
449.00	36470.00
450.00	37204.00
451.00	38237.00
452.00	38912.00
453.00	39898.00
454.00	41813.00
455.00	43107.00
456.00	45476.00
457.00	46720.00
458.00	48656.00
459.00	50356.00
460.00	51363.00
461.00	52706.00
462.00	53108.00
463.00	53208.00
464.00	52820.00
465.00	52275.00
466.00	52042.00
467.00	51366.00
468.00	50674.00
469.00	50689.00
470.00	50443.00
471.00	50574.00
472.00	50891.00
473.00	51485.00
474.00	51714.00
475.00	52835.00
476.00	53251.00
477.00	53991.00
478.00	54415.00
479.00	54465.00
480.00	54451.00
481.00	54903.00
482.00	54481.00
483.00	54317.00
484.00	54418.00
485.00	55326.00
486.00	56153.00
487.00	57708.00
488.00	59994.00
489.00	62530.00
490.00	66057.00
491.00	69267.00
492.00	72588.00
493.00	74549.00
494.00	75913.00
495.00	76461.00
496.00	75425.00
497.00	73290.00
498.00	70360.00
499.00	67372.00
500.00	64193.00
501.00	61876.00
502.00	59566.00
503.00	58616.00
504.00	56941.00
505.00	56858.00
506.00	56412.00
507.00	57023.00
508.00	57256.00
509.00	57557.00
510.00	57958.00
511.00	58265.00
512.00	58776.00
513.00	58860.00
514.00	59327.00
515.00	59513.00
516.00	60201.00
517.00	60182.00
518.00	61244.00
519.00	61935.00
520.00	62574.00
521.00	62749.00
522.00	64487.00
523.00	65280.00
524.00	66846.00
525.00	67882.00
526.00	69681.00
527.00	71109.00
528.00	72361.00
529.00	73077.00
530.00	74339.00
531.00	74307.00
532.00	74703.00
533.00	74225.00
534.00	74289.00
535.00	74065.00
536.00	73928.00
537.00	73921.00
538.00	74040.00
539.00	74238.00
540.00	75424.00
541.00	75454.00
542.00	77048.00
543.00	77419.00
544.00	78299.00
545.00	79457.00
546.00	80508.00
547.00	81465.00
548.00	81617.00
549.00	82117.00
550.00	82617.00
551.00	82525.00
552.00	82308.00
553.00	82924.00
554.00	82113.00
555.00	81762.00
556.00	81488.00
557.00	80890.00
558.00	80685.00
559.00	80184.00
560.00	80018.00
561.00	79531.00
562.00	79742.00
563.00	80054.00
564.00	80060.00
565.00	80266.00
566.00	80465.00
567.00	81190.00
568.00	80979.00
569.00	80892.00
570.00	82147.00
571.00	82588.00
572.00	82244.00
573.00	82818.00
574.00	82685.00
575.00	83242.00
576.00	83222.00
577.00	83942.00
578.00	83869.00
579.00	84228.00
580.00	84379.00
581.00	84960.00
582.00	85868.00
583.00	85890.00
584.00	86145.00
585.00	87088.00
586.00	87406.00
587.00	88043.00
588.00	89252.00
589.00	88915.00
590.00	89279.00
591.00	88901.00
592.00	89317.00
593.00	89285.00
594.00	90322.00
595.00	90359.00
596.00	90891.00
597.00	91791.00
598.00	92237.00
599.00	92261.00
600.00	92656.00
601.00	93966.00
602.00	94171.00
603.00	94461.00
604.00	94985.00
605.00	95154.00
606.00	96029.00
607.00	96248.00
608.00	96711.00
609.00	97214.00
610.00	97802.00
611.00	98198.00
612.00	98523.00
613.00	98822.00
614.00	98864.00
615.00	100245.00
616.00	99796.00
617.00	100929.00
618.00	101182.00
619.00	101550.00
620.00	102380.00
621.00	102330.00
622.00	102961.00
623.00	103555.00
624.00	104243.00
625.00	104295.00
626.00	104129.00
627.00	104496.00
628.00	104970.00
629.00	105321.00
630.00	106128.00
631.00	106240.00
632.00	106930.00
633.00	107417.00
634.00	107263.00
635.00	108235.00
636.00	108115.00
637.00	109259.00
638.00	109157.00
639.00	109961.00
640.00	109792.00
641.00	111203.00
642.00	111655.00
643.00	111431.00
644.00	111474.00
645.00	112048.00
646.00	113011.00
647.00	112827.00
648.00	114153.00
649.00	113580.00
650.00	114011.00
651.00	114165.00
652.00	114622.00
653.00	114524.00
654.00	115161.00
655.00	115161.00
656.00	115645.00
657.00	115974.00
658.00	116766.00
659.00	116632.00
660.00	117180.00
661.00	117399.00
662.00	117967.00
663.00	118471.00
664.00	118748.00
665.00	119050.00
666.00	119762.00
667.00	120661.00
668.00	121198.00
669.00	121138.00
670.00	122899.00
671.00	124095.00
672.00	124884.00
673.00	126594.00
674.00	128081.00
675.00	130126.00
676.00	131867.00
677.00	134284.00
678.00	136304.00
679.00	138580.00
680.00	139435.00
681.00	139733.00
682.00	140538.00
683.00	139977.00
684.00	139939.00
685.00	138915.00
686.00	136553.00
687.00	134841.00
688.00	134474.00
689.00	132943.00
690.00	132025.00
691.00	130802.00
692.00	130897.00
693.00	130145.00
694.00	130131.00
695.00	129849.00
696.00	130189.00
697.00	131195.00
698.00	130864.00
699.00	131212.00
700.00	131081.00
701.00	131879.00
702.00	132481.00
703.00	132274.00
704.00	133099.00
705.00	133576.00
706.00	133711.00
707.00	134053.00
708.00	134106.00
709.00	134989.00
710.00	134798.00
711.00	135221.00
712.00	135727.00
713.00	135801.00
714.00	136013.00
715.00	137287.00
716.00	137678.00
717.00	137603.00
718.00	137677.00
719.00	137727.00
720.00	138325.00
721.00	139105.00
722.00	139292.00
723.00	139878.00
724.00	140159.00
725.00	140075.00
726.00	140476.00
727.00	140898.00
728.00	141159.00
729.00	141751.00
730.00	141586.00
731.00	141969.00
732.00	141819.00
733.00	142216.00
734.00	143212.00
735.00	143018.00
736.00	142587.00
737.00	142852.00
738.00	143379.00
739.00	144051.00
740.00	144190.00
741.00	145493.00
742.00	144021.00
743.00	144260.00
744.00	143866.00
745.00	144529.00
746.00	144766.00
747.00	145584.00
748.00	145425.00
749.00	146152.00
750.00	147014.00
751.00	146029.00
752.00	146933.00
753.00	147308.00
754.00	148200.00
755.00	149412.00
756.00	149714.00
757.00	150021.00
758.00	150568.00
759.00	151950.00
760.00	151845.00
761.00	152391.00
762.00	152516.00
763.00	152626.00
764.00	152393.00
765.00	151827.00
766.00	151574.00
767.00	151363.00
768.00	151504.00
769.00	151474.00
770.00	151632.00
771.00	151289.00
772.00	150927.00
773.00	150776.00
774.00	151473.00
775.00	151080.00
776.00	151243.00
777.00	150939.00
778.00	151038.00
779.00	151359.00
780.00	151156.00
781.00	150999.00
782.00	151688.00
783.00	151742.00
784.00	152343.00
785.00	151883.00
786.00	152010.00
787.00	153406.00
788.00	152196.00
789.00	152774.00
790.00	153318.00
791.00	153634.00
792.00	155056.00
793.00	154950.00
794.00	157168.00
795.00	158627.00
796.00	161953.00
797.00	164524.00
798.00	169563.00
799.00	174342.00
800.00	180457.00
801.00	188411.00
802.00	196975.00
803.00	205910.00
804.00	215113.00
805.00	223224.00
806.00	230298.00
807.00	237456.00
808.00	239696.00
809.00	240190.00
810.00	238829.00
811.00	235554.00
812.00	228619.00
813.00	220163.00
814.00	212307.00
815.00	202636.00
816.00	194467.00
817.00	185761.00
818.00	178404.00
819.00	172040.00
820.00	167764.00
821.00	164355.00
822.00	161859.00
823.00	160200.00
824.00	157509.00
825.00	157381.00
826.00	157338.00
827.00	156674.00
828.00	156060.00
829.00	156862.00
830.00	156431.00
831.00	156981.00
832.00	156894.00
833.00	156511.00
834.00	156753.00
835.00	156734.00
836.00	157764.00
837.00	157203.00
838.00	157397.00
839.00	158033.00
840.00	158251.00
841.00	159116.00
842.00	159179.00
843.00	160069.00
844.00	161181.00
845.00	160202.00
846.00	162261.00
847.00	163676.00
848.00	164371.00
849.00	165733.00
850.00	167349.00
851.00	166876.00
852.00	168824.00
853.00	168830.00
854.00	170669.00
855.00	169763.00
856.00	169820.00
857.00	168965.00
858.00	168827.00
859.00	166746.00
860.00	166084.00
861.00	165415.00
862.00	165303.00
863.00	164552.00
864.00	163309.00
865.00	162941.00
866.00	163387.00
867.00	162858.00
868.00	163912.00
869.00	163190.00
870.00	163063.00
871.00	164306.00
872.00	164516.00
873.00	164764.00
874.00	164657.00
875.00	164393.00
876.00	166698.00
877.00	166739.00
878.00	167133.00
879.00	167852.00
880.00	168194.00
881.00	168467.00
882.00	169772.00
883.00	170412.00
884.00	171757.00
885.00	172533.00
886.00	174906.00
887.00	176897.00
888.00	180353.00
889.00	182366.00
890.00	185606.00
891.00	189186.00
892.00	194331.00
893.00	199611.00
894.00	205009.00
895.00	209996.00
896.00	216361.00
897.00	221211.00
898.00	227092.00
899.00	231963.00
900.00	236220.00
901.00	239424.00
902.00	241715.00
903.00	243742.00
904.00	243687.00
905.00	242999.00
906.00	243357.00
907.00	241302.00
908.00	240540.00
909.00	239395.00
910.00	239627.00
911.00	240228.00
912.00	242878.00
913.00	245502.00
914.00	250167.00
915.00	256016.00
916.00	264026.00
917.00	272838.00
918.00	281580.00
919.00	294769.00
920.00	306836.00
921.00	321661.00
922.00	336147.00
923.00	353398.00
924.00	372585.00
925.00	391944.00
926.00	413535.00
927.00	435731.00
928.00	458675.00
929.00	480945.00
930.00	505089.00
931.00	528198.00
932.00	550852.00
933.00	572327.00
934.00	593718.00
935.00	612312.00
936.00	631195.00
937.00	644856.00
938.00	658453.00
939.00	668357.00
940.00	673948.00
941.00	676377.00
942.00	678873.00
943.00	675340.00
944.00	667390.00
945.00	659436.00
946.00	647390.00
947.00	633081.00
948.00	614212.00
949.00	596266.00
950.00	576641.00
951.00	552665.00
952.00	531044.00
953.00	507522.00
954.00	480762.00
955.00	456895.00
956.00	433872.00
957.00	410448.00
958.00	387400.00
959.00	365724.00
960.00	345289.00
961.00	326210.00
962.00	307780.00
963.00	291786.00
964.00	276623.00
965.00	261688.00
966.00	248490.00
967.00	236719.00
968.00	226328.00
969.00	216881.00
970.00	207268.00
971.00	199576.00
972.00	192286.00
973.00	185792.00
974.00	180575.00
975.00	176427.00
976.00	172811.00
977.00	169086.00
978.00	166962.00
979.00	165547.00
980.00	166433.00
981.00	167882.00
982.00	170505.00
983.00	176612.00
984.00	183361.00
985.00	192162.00
986.00	204696.00
987.00	217048.00
988.00	234791.00
989.00	253331.00
990.00	271988.00
991.00	290982.00
992.00	309818.00
993.00	327618.00
994.00	342105.00
995.00	354473.00
996.00	360543.00
997.00	363308.00
998.00	360577.00
999.00	352578.00
1000.00	340011.00
1001.00	323046.00
1002.00	303246.00
1003.00	282503.00
1004.00	259692.00
1005.00	237980.00
1006.00	216291.00
1007.00	197690.00
1008.00	180172.00
1009.00	166169.00
1010.00	154630.00
1011.00	145112.00
1012.00	138533.00
1013.00	132643.00
1014.00	129288.00
1015.00	126391.00
1016.00	124461.00
1017.00	122786.00
1018.00	121723.00
1019.00	121303.00
1020.00	121736.00
1021.00	121068.00
1022.00	121754.00
1023.00	123030.00
1024.00	123163.00
