Date:	2023-08-24		
Time:	10:36		
Sample name:	MI1H_I_J		
Position:	66.000049	mm	
Sample surface:	5.277112	cm	
Tube anode:	Mo		
Tube voltage:	30	kV	
Tube current:	30	mA	
Comments	not in position		
Gain	0.060000		
peaking_time	1.500000	m-sec	
trigger_threshold	653.076172	V	
mca_bin_width	17.500000	no:	
number_mca_channels	1024.000000	no:	
gap_time	0.080000	m-sec	
trigger_peaking_time	0.060000	m-sec	
livetime	6.200223	seconds	
runtime	10.007292	seconds	
input_count_rate	66914.841062	cps	
output_count_rate	41458.466496	cps	
triggers	0	seconds	
events_in_run	0	seconds	
channel	content		
 1.00	 0.00
 2.00	 0.00
 3.00	 0.00
 4.00	 0.00
 5.00	 0.00
 6.00	 0.00
 7.00	 0.00
 8.00	 0.00
 9.00	 0.00
10.00	 0.00
11.00	 0.00
12.00	 0.00
13.00	 0.00
14.00	 0.00
15.00	 0.00
16.00	 0.00
17.00	 0.00
18.00	 0.00
19.00	 0.00
20.00	 0.00
21.00	 0.00
22.00	 0.00
23.00	 0.00
24.00	 0.00
25.00	 0.00
26.00	 0.00
27.00	 0.00
28.00	 0.00
29.00	 0.00
30.00	 0.00
31.00	 1.00
32.00	 1.00
33.00	 0.00
34.00	 0.00
35.00	 1.00
36.00	 0.00
37.00	 3.00
38.00	 6.00
39.00	 8.00
40.00	10.00
41.00	15.00
42.00	10.00
43.00	25.00
44.00	30.00
45.00	41.00
46.00	58.00
47.00	85.00
48.00	106.00
49.00	139.00
50.00	162.00
51.00	214.00
52.00	249.00
53.00	328.00
54.00	388.00
55.00	425.00
56.00	547.00
57.00	615.00
58.00	630.00
59.00	734.00
60.00	848.00
61.00	905.00
62.00	888.00
63.00	1098.00
64.00	1118.00
65.00	1129.00
66.00	1211.00
67.00	1277.00
68.00	1290.00
69.00	1293.00
70.00	1305.00
71.00	1298.00
72.00	1297.00
73.00	1420.00
74.00	1337.00
75.00	1393.00
76.00	1316.00
77.00	1312.00
78.00	1360.00
79.00	1285.00
80.00	1299.00
81.00	1285.00
82.00	1362.00
83.00	1347.00
84.00	1280.00
85.00	1330.00
86.00	1324.00
87.00	1247.00
88.00	1255.00
89.00	1227.00
90.00	1141.00
91.00	1117.00
92.00	1012.00
93.00	1077.00
94.00	1039.00
95.00	991.00
96.00	992.00
97.00	1009.00
98.00	1014.00
99.00	973.00
100.00	1022.00
101.00	937.00
102.00	926.00
103.00	933.00
104.00	906.00
105.00	956.00
106.00	976.00
107.00	951.00
108.00	923.00
109.00	925.00
110.00	869.00
111.00	909.00
112.00	853.00
113.00	821.00
114.00	855.00
115.00	830.00
116.00	855.00
117.00	829.00
118.00	846.00
119.00	776.00
120.00	758.00
121.00	749.00
122.00	743.00
123.00	691.00
124.00	675.00
125.00	707.00
126.00	701.00
127.00	699.00
128.00	675.00
129.00	694.00
130.00	635.00
131.00	682.00
132.00	645.00
133.00	613.00
134.00	629.00
135.00	577.00
136.00	637.00
137.00	557.00
138.00	576.00
139.00	592.00
140.00	540.00
141.00	526.00
142.00	528.00
143.00	521.00
144.00	464.00
145.00	489.00
146.00	471.00
147.00	459.00
148.00	462.00
149.00	502.00
150.00	483.00
151.00	458.00
152.00	482.00
153.00	469.00
154.00	449.00
155.00	470.00
156.00	445.00
157.00	498.00
158.00	479.00
159.00	440.00
160.00	443.00
161.00	463.00
162.00	530.00
163.00	559.00
164.00	564.00
165.00	734.00
166.00	786.00
167.00	944.00
168.00	1041.00
169.00	1127.00
170.00	1189.00
171.00	1151.00
172.00	1094.00
173.00	993.00
174.00	812.00
175.00	678.00
176.00	604.00
177.00	554.00
178.00	471.00
179.00	440.00
180.00	405.00
181.00	421.00
182.00	463.00
183.00	469.00
184.00	472.00
185.00	480.00
186.00	408.00
187.00	446.00
188.00	417.00
189.00	390.00
190.00	387.00
191.00	378.00
192.00	449.00
193.00	373.00
194.00	365.00
195.00	374.00
196.00	360.00
197.00	356.00
198.00	418.00
199.00	360.00
200.00	340.00
201.00	336.00
202.00	336.00
203.00	384.00
204.00	427.00
205.00	536.00
206.00	583.00
207.00	765.00
208.00	883.00
209.00	1147.00
210.00	1231.00
211.00	1351.00
212.00	1439.00
213.00	1390.00
214.00	1251.00
215.00	1158.00
216.00	979.00
217.00	796.00
218.00	608.00
219.00	535.00
220.00	459.00
221.00	407.00
222.00	374.00
223.00	368.00
224.00	376.00
225.00	418.00
226.00	402.00
227.00	449.00
228.00	503.00
229.00	460.00
230.00	509.00
231.00	535.00
232.00	480.00
233.00	461.00
234.00	462.00
235.00	408.00
236.00	412.00
237.00	398.00
238.00	354.00
239.00	380.00
240.00	372.00
241.00	359.00
242.00	325.00
243.00	371.00
244.00	386.00
245.00	400.00
246.00	405.00
247.00	426.00
248.00	472.00
249.00	590.00
250.00	791.00
251.00	1061.00
252.00	1372.00
253.00	1915.00
254.00	2654.00
255.00	3345.00
256.00	4158.00
257.00	4929.00
258.00	5239.00
259.00	5334.00
260.00	5244.00
261.00	4884.00
262.00	4152.00
263.00	3425.00
264.00	2773.00
265.00	2177.00
266.00	1728.00
267.00	1233.00
268.00	1054.00
269.00	859.00
270.00	757.00
271.00	670.00
272.00	670.00
273.00	702.00
274.00	693.00
275.00	727.00
276.00	751.00
277.00	886.00
278.00	1043.00
279.00	1141.00
280.00	1376.00
281.00	1408.00
282.00	1526.00
283.00	1621.00
284.00	1573.00
285.00	1510.00
286.00	1344.00
287.00	1240.00
288.00	1070.00
289.00	1025.00
290.00	898.00
291.00	770.00
292.00	749.00
293.00	770.00
294.00	748.00
295.00	753.00
296.00	705.00
297.00	760.00
298.00	748.00
299.00	775.00
300.00	816.00
301.00	856.00
302.00	845.00
303.00	914.00
304.00	910.00
305.00	987.00
306.00	971.00
307.00	1018.00
308.00	1005.00
309.00	1090.00
310.00	1081.00
311.00	1052.00
312.00	1162.00
313.00	1059.00
314.00	1084.00
315.00	1082.00
316.00	1015.00
317.00	1036.00
318.00	1026.00
319.00	1080.00
320.00	1092.00
321.00	1043.00
322.00	1146.00
323.00	1124.00
324.00	1124.00
325.00	1176.00
326.00	1101.00
327.00	1184.00
328.00	1238.00
329.00	1211.00
330.00	1238.00
331.00	1340.00
332.00	1337.00
333.00	1366.00
334.00	1404.00
335.00	1474.00
336.00	1486.00
337.00	1542.00
338.00	1549.00
339.00	1545.00
340.00	1649.00
341.00	1627.00
342.00	1692.00
343.00	1611.00
344.00	1592.00
345.00	1599.00
346.00	1634.00
347.00	1627.00
348.00	1622.00
349.00	1647.00
350.00	1700.00
351.00	1916.00
352.00	2015.00
353.00	2265.00
354.00	2691.00
355.00	3443.00
356.00	4628.00
357.00	6619.00
358.00	9708.00
359.00	14034.00
360.00	19814.00
361.00	27401.00
362.00	36248.00
363.00	45569.00
364.00	55098.00
365.00	62503.00
366.00	67397.00
367.00	69702.00
368.00	67536.00
369.00	61748.00
370.00	53920.00
371.00	44447.00
372.00	34839.00
373.00	25996.00
374.00	18436.00
375.00	13018.00
376.00	9064.00
377.00	6430.00
378.00	4620.00
379.00	3650.00
380.00	3093.00
381.00	2742.00
382.00	2605.00
383.00	2694.00
384.00	2643.00
385.00	2727.00
386.00	2767.00
387.00	2821.00
388.00	2830.00
389.00	2929.00
390.00	2999.00
391.00	3095.00
392.00	3238.00
393.00	3488.00
394.00	3868.00
395.00	4382.00
396.00	4949.00
397.00	5845.00
398.00	7025.00
399.00	8307.00
400.00	9686.00
401.00	11210.00
402.00	12646.00
403.00	13733.00
404.00	14201.00
405.00	14024.00
406.00	13276.00
407.00	12471.00
408.00	10912.00
409.00	9469.00
410.00	8005.00
411.00	6817.00
412.00	5821.00
413.00	5033.00
414.00	4451.00
415.00	4122.00
416.00	3966.00
417.00	3806.00
418.00	3872.00
419.00	3783.00
420.00	3955.00
421.00	4097.00
422.00	4260.00
423.00	4556.00
424.00	4799.00
425.00	5063.00
426.00	5160.00
427.00	5266.00
428.00	5428.00
429.00	5356.00
430.00	5375.00
431.00	5151.00
432.00	5167.00
433.00	4939.00
434.00	4809.00
435.00	4797.00
436.00	4532.00
437.00	4580.00
438.00	4549.00
439.00	4637.00
440.00	4507.00
441.00	4547.00
442.00	4599.00
443.00	4834.00
444.00	4734.00
445.00	4826.00
446.00	4760.00
447.00	4844.00
448.00	4911.00
449.00	5103.00
450.00	5073.00
451.00	5131.00
452.00	5236.00
453.00	5273.00
454.00	5542.00
455.00	5503.00
456.00	5744.00
457.00	5890.00
458.00	6055.00
459.00	6117.00
460.00	6341.00
461.00	6346.00
462.00	6418.00
463.00	6559.00
464.00	6756.00
465.00	6745.00
466.00	6848.00
467.00	6784.00
468.00	6998.00
469.00	7005.00
470.00	6835.00
471.00	7001.00
472.00	7177.00
473.00	7159.00
474.00	7111.00
475.00	7243.00
476.00	7219.00
477.00	7153.00
478.00	7221.00
479.00	7355.00
480.00	7194.00
481.00	7318.00
482.00	7298.00
483.00	7292.00
484.00	7216.00
485.00	7067.00
486.00	7104.00
487.00	7056.00
488.00	6978.00
489.00	7033.00
490.00	7075.00
491.00	7084.00
492.00	7183.00
493.00	7228.00
494.00	7274.00
495.00	7201.00
496.00	7419.00
497.00	7430.00
498.00	7369.00
499.00	7464.00
500.00	7422.00
501.00	7550.00
502.00	7557.00
503.00	7571.00
504.00	7767.00
505.00	7782.00
506.00	7947.00
507.00	7872.00
508.00	7967.00
509.00	7998.00
510.00	8174.00
511.00	8169.00
512.00	8301.00
513.00	8355.00
514.00	8238.00
515.00	8156.00
516.00	8365.00
517.00	8594.00
518.00	8645.00
519.00	8605.00
520.00	8608.00
521.00	9002.00
522.00	8913.00
523.00	8859.00
524.00	9123.00
525.00	9189.00
526.00	9393.00
527.00	9649.00
528.00	9593.00
529.00	9792.00
530.00	9788.00
531.00	9920.00
532.00	10127.00
533.00	10158.00
534.00	10166.00
535.00	10315.00
536.00	10349.00
537.00	10415.00
538.00	10470.00
539.00	10682.00
540.00	10768.00
541.00	10705.00
542.00	11008.00
543.00	10956.00
544.00	10995.00
545.00	11291.00
546.00	11225.00
547.00	11474.00
548.00	11355.00
549.00	11281.00
550.00	11475.00
551.00	11675.00
552.00	11830.00
553.00	11804.00
554.00	11777.00
555.00	11750.00
556.00	11775.00
557.00	11743.00
558.00	11853.00
559.00	11912.00
560.00	11905.00
561.00	11809.00
562.00	11710.00
563.00	12010.00
564.00	11908.00
565.00	11985.00
566.00	12060.00
567.00	11996.00
568.00	12277.00
569.00	12369.00
570.00	12586.00
571.00	12344.00
572.00	12599.00
573.00	12407.00
574.00	12742.00
575.00	12313.00
576.00	12672.00
577.00	12508.00
578.00	12670.00
579.00	12591.00
580.00	12687.00
581.00	12941.00
582.00	12944.00
583.00	12880.00
584.00	13043.00
585.00	12980.00
586.00	13117.00
587.00	13068.00
588.00	13202.00
589.00	13308.00
590.00	13435.00
591.00	13588.00
592.00	13635.00
593.00	13410.00
594.00	13723.00
595.00	13642.00
596.00	13793.00
597.00	14006.00
598.00	14040.00
599.00	14198.00
600.00	14065.00
601.00	14272.00
602.00	14144.00
603.00	14333.00
604.00	14262.00
605.00	14571.00
606.00	14638.00
607.00	14626.00
608.00	14733.00
609.00	14676.00
610.00	14880.00
611.00	15065.00
612.00	14992.00
613.00	14951.00
614.00	15185.00
615.00	15482.00
616.00	15583.00
617.00	15477.00
618.00	15211.00
619.00	15500.00
620.00	15752.00
621.00	15980.00
622.00	15812.00
623.00	15766.00
624.00	15896.00
625.00	15953.00
626.00	16052.00
627.00	16175.00
628.00	16149.00
629.00	16516.00
630.00	16446.00
631.00	16447.00
632.00	16419.00
633.00	16821.00
634.00	16512.00
635.00	16807.00
636.00	16865.00
637.00	16639.00
638.00	16749.00
639.00	17175.00
640.00	17073.00
641.00	16931.00
642.00	17159.00
643.00	17334.00
644.00	17564.00
645.00	17578.00
646.00	17521.00
647.00	17499.00
648.00	17535.00
649.00	17881.00
650.00	17847.00
651.00	17776.00
652.00	17929.00
653.00	17843.00
654.00	18090.00
655.00	18051.00
656.00	18064.00
657.00	18221.00
658.00	18179.00
659.00	18358.00
660.00	18444.00
661.00	18596.00
662.00	18715.00
663.00	18605.00
664.00	18784.00
665.00	18739.00
666.00	18991.00
667.00	19006.00
668.00	19224.00
669.00	19313.00
670.00	19693.00
671.00	19751.00
672.00	20070.00
673.00	20727.00
674.00	21149.00
675.00	21832.00
676.00	22287.00
677.00	22803.00
678.00	23453.00
679.00	24135.00
680.00	24642.00
681.00	24445.00
682.00	24775.00
683.00	24325.00
684.00	24122.00
685.00	23739.00
686.00	23389.00
687.00	23113.00
688.00	22337.00
689.00	22080.00
690.00	21498.00
691.00	21101.00
692.00	21170.00
693.00	20972.00
694.00	20652.00
695.00	20967.00
696.00	20859.00
697.00	21101.00
698.00	21003.00
699.00	21045.00
700.00	21055.00
701.00	20972.00
702.00	21133.00
703.00	21169.00
704.00	21451.00
705.00	21166.00
706.00	21422.00
707.00	21088.00
708.00	21417.00
709.00	21727.00
710.00	21724.00
711.00	21707.00
712.00	21858.00
713.00	21933.00
714.00	21757.00
715.00	21821.00
716.00	22263.00
717.00	21832.00
718.00	21962.00
719.00	21703.00
720.00	22244.00
721.00	22180.00
722.00	22385.00
723.00	22361.00
724.00	22316.00
725.00	22450.00
726.00	22244.00
727.00	22540.00
728.00	22772.00
729.00	22558.00
730.00	22831.00
731.00	23105.00
732.00	22735.00
733.00	23054.00
734.00	23252.00
735.00	23235.00
736.00	23095.00
737.00	23088.00
738.00	23131.00
739.00	23115.00
740.00	23213.00
741.00	23462.00
742.00	23111.00
743.00	23470.00
744.00	23587.00
745.00	23551.00
746.00	23370.00
747.00	24007.00
748.00	23767.00
749.00	23749.00
750.00	23599.00
751.00	23781.00
752.00	24367.00
753.00	24118.00
754.00	24163.00
755.00	24426.00
756.00	24657.00
757.00	24983.00
758.00	24906.00
759.00	24945.00
760.00	24870.00
761.00	25049.00
762.00	25061.00
763.00	25145.00
764.00	24895.00
765.00	24993.00
766.00	24939.00
767.00	24847.00
768.00	24838.00
769.00	24780.00
770.00	24688.00
771.00	24810.00
772.00	24792.00
773.00	24846.00
774.00	24872.00
775.00	24502.00
776.00	24565.00
777.00	24859.00
778.00	24790.00
779.00	24752.00
780.00	24833.00
781.00	24909.00
782.00	24788.00
783.00	24931.00
784.00	24933.00
785.00	24708.00
786.00	24908.00
787.00	25033.00
788.00	24942.00
789.00	25191.00
790.00	25029.00
791.00	25006.00
792.00	25229.00
793.00	24984.00
794.00	25312.00
795.00	25314.00
796.00	25472.00
797.00	25542.00
798.00	25396.00
799.00	25439.00
800.00	25775.00
801.00	26051.00
802.00	25954.00
803.00	25807.00
804.00	26336.00
805.00	26260.00
806.00	26297.00
807.00	26395.00
808.00	26241.00
809.00	26741.00
810.00	26273.00
811.00	26513.00
812.00	26424.00
813.00	26530.00
814.00	26626.00
815.00	26060.00
816.00	26393.00
817.00	26027.00
818.00	26324.00
819.00	26206.00
820.00	26387.00
821.00	25981.00
822.00	25983.00
823.00	25969.00
824.00	25978.00
825.00	26150.00
826.00	26224.00
827.00	26167.00
828.00	26349.00
829.00	26421.00
830.00	26475.00
831.00	26469.00
832.00	26391.00
833.00	26250.00
834.00	26143.00
835.00	26259.00
836.00	26558.00
837.00	26596.00
838.00	26460.00
839.00	26890.00
840.00	26620.00
841.00	26793.00
842.00	26835.00
843.00	26708.00
844.00	26796.00
845.00	26807.00
846.00	26851.00
847.00	26516.00
848.00	27072.00
849.00	26958.00
850.00	26859.00
851.00	27214.00
852.00	27151.00
853.00	27061.00
854.00	27021.00
855.00	27445.00
856.00	27510.00
857.00	27331.00
858.00	27190.00
859.00	27278.00
860.00	27302.00
861.00	27608.00
862.00	27725.00
863.00	27553.00
864.00	27992.00
865.00	27694.00
866.00	27637.00
867.00	27481.00
868.00	27752.00
869.00	27932.00
870.00	28007.00
871.00	27776.00
872.00	27958.00
873.00	28216.00
874.00	28324.00
875.00	28252.00
876.00	28596.00
877.00	28476.00
878.00	28453.00
879.00	28999.00
880.00	28925.00
881.00	28877.00
882.00	29172.00
883.00	29517.00
884.00	29377.00
885.00	29423.00
886.00	29659.00
887.00	30274.00
888.00	29712.00
889.00	30355.00
890.00	30507.00
891.00	30652.00
892.00	30837.00
893.00	31069.00
894.00	31495.00
895.00	31686.00
896.00	32028.00
897.00	32371.00
898.00	32432.00
899.00	32969.00
900.00	33450.00
901.00	34164.00
902.00	34583.00
903.00	34879.00
904.00	35544.00
905.00	35532.00
906.00	36347.00
907.00	37342.00
908.00	37822.00
909.00	38851.00
910.00	39308.00
911.00	40177.00
912.00	41570.00
913.00	43086.00
914.00	44275.00
915.00	45668.00
916.00	47664.00
917.00	49354.00
918.00	51377.00
919.00	53739.00
920.00	56337.00
921.00	59107.00
922.00	62461.00
923.00	65841.00
924.00	69500.00
925.00	72845.00
926.00	76967.00
927.00	80791.00
928.00	85453.00
929.00	89271.00
930.00	93706.00
931.00	97610.00
932.00	102358.00
933.00	106293.00
934.00	110181.00
935.00	113019.00
936.00	115552.00
937.00	118605.00
938.00	119885.00
939.00	121306.00
940.00	122683.00
941.00	122498.00
942.00	122490.00
943.00	121162.00
944.00	119904.00
945.00	118096.00
946.00	115501.00
947.00	112715.00
948.00	108807.00
949.00	105002.00
950.00	101103.00
951.00	96402.00
952.00	92128.00
953.00	88029.00
954.00	83322.00
955.00	79148.00
956.00	74869.00
957.00	70640.00
958.00	66438.00
959.00	62848.00
960.00	59268.00
961.00	55811.00
962.00	52791.00
963.00	49575.00
964.00	47405.00
965.00	44410.00
966.00	42245.00
967.00	40521.00
968.00	38474.00
969.00	36718.00
970.00	35104.00
971.00	34139.00
972.00	32685.00
973.00	31526.00
974.00	31147.00
975.00	29877.00
976.00	29489.00
977.00	28824.00
978.00	28398.00
979.00	28025.00
980.00	27996.00
981.00	28021.00
982.00	28753.00
983.00	29279.00
984.00	30114.00
985.00	31215.00
986.00	32954.00
987.00	34794.00
988.00	36481.00
989.00	38669.00
990.00	40966.00
991.00	43502.00
992.00	46126.00
993.00	48033.00
994.00	49681.00
995.00	51437.00
996.00	51975.00
997.00	52247.00
998.00	51664.00
999.00	51030.00
1000.00	49165.00
1001.00	47178.00
1002.00	44487.00
1003.00	41616.00
1004.00	38437.00
1005.00	35636.00
1006.00	32891.00
1007.00	30546.00
1008.00	28111.00
1009.00	26481.00
1010.00	24625.00
1011.00	23621.00
1012.00	22883.00
1013.00	22353.00
1014.00	21666.00
1015.00	21723.00
1016.00	21405.00
1017.00	21504.00
1018.00	21414.00
1019.00	21170.00
1020.00	21459.00
1021.00	21879.00
1022.00	21682.00
1023.00	21740.00
1024.00	22244.00
