Date:	2023-08-24		
Time:	14:12		
Sample name:	MI1H_I_J		
Position:	1065.000049	mm	
Sample surface:	4.912271	cm	
Tube anode:	Mo		
Tube voltage:	30	kV	
Tube current:	30	mA	
Comments	not in position		
Gain	0.060000		
peaking_time	1.500000	m-sec	
trigger_threshold	653.076172	V	
mca_bin_width	17.500000	no:	
number_mca_channels	1024.000000	no:	
gap_time	0.080000	m-sec	
trigger_peaking_time	0.060000	m-sec	
livetime	6.862032	seconds	
runtime	10.007452	seconds	
input_count_rate	48930.443172	cps	
output_count_rate	33551.796664	cps	
triggers	0	seconds	
events_in_run	0	seconds	
channel	content		
 1.00	 0.00
 2.00	 0.00
 3.00	 0.00
 4.00	 0.00
 5.00	 0.00
 6.00	 0.00
 7.00	 0.00
 8.00	 0.00
 9.00	 0.00
10.00	 0.00
11.00	 0.00
12.00	 0.00
13.00	 0.00
14.00	 0.00
15.00	 0.00
16.00	 0.00
17.00	 0.00
18.00	 0.00
19.00	 0.00
20.00	 0.00
21.00	 0.00
22.00	 0.00
23.00	 0.00
24.00	 0.00
25.00	 0.00
26.00	 0.00
27.00	 0.00
28.00	 0.00
29.00	 0.00
30.00	 0.00
31.00	 3.00
32.00	 6.00
33.00	 4.00
34.00	 8.00
35.00	14.00
36.00	19.00
37.00	27.00
38.00	26.00
39.00	47.00
40.00	99.00
41.00	128.00
42.00	153.00
43.00	247.00
44.00	331.00
45.00	410.00
46.00	598.00
47.00	764.00
48.00	969.00
49.00	1277.00
50.00	1636.00
51.00	1946.00
52.00	2456.00
53.00	2970.00
54.00	3720.00
55.00	4160.00
56.00	4929.00
57.00	5515.00
58.00	6305.00
59.00	7130.00
60.00	7957.00
61.00	8660.00
62.00	9286.00
63.00	10055.00
64.00	10444.00
65.00	10875.00
66.00	11647.00
67.00	11907.00
68.00	12295.00
69.00	12623.00
70.00	12562.00
71.00	12670.00
72.00	12608.00
73.00	12679.00
74.00	12595.00
75.00	12534.00
76.00	12339.00
77.00	12182.00
78.00	12131.00
79.00	12066.00
80.00	12194.00
81.00	12194.00
82.00	12209.00
83.00	12230.00
84.00	12439.00
85.00	12326.00
86.00	12351.00
87.00	12267.00
88.00	11815.00
89.00	11350.00
90.00	10689.00
91.00	10347.00
92.00	9906.00
93.00	9806.00
94.00	9643.00
95.00	9284.00
96.00	9248.00
97.00	9274.00
98.00	9193.00
99.00	9247.00
100.00	9117.00
101.00	9088.00
102.00	9152.00
103.00	8939.00
104.00	8747.00
105.00	8700.00
106.00	8673.00
107.00	8500.00
108.00	8579.00
109.00	8620.00
110.00	8573.00
111.00	8358.00
112.00	8308.00
113.00	8203.00
114.00	8020.00
115.00	7952.00
116.00	7793.00
117.00	7507.00
118.00	7287.00
119.00	7204.00
120.00	7087.00
121.00	6894.00
122.00	6648.00
123.00	6578.00
124.00	6383.00
125.00	6375.00
126.00	6498.00
127.00	6397.00
128.00	6353.00
129.00	6286.00
130.00	6392.00
131.00	6437.00
132.00	6530.00
133.00	6393.00
134.00	6272.00
135.00	6093.00
136.00	5822.00
137.00	5597.00
138.00	5485.00
139.00	5258.00
140.00	5093.00
141.00	4763.00
142.00	4906.00
143.00	4819.00
144.00	4705.00
145.00	4761.00
146.00	4733.00
147.00	4685.00
148.00	4534.00
149.00	4444.00
150.00	4519.00
151.00	4575.00
152.00	4541.00
153.00	4574.00
154.00	4528.00
155.00	4557.00
156.00	4558.00
157.00	4593.00
158.00	4627.00
159.00	4705.00
160.00	4818.00
161.00	4978.00
162.00	5129.00
163.00	5510.00
164.00	6370.00
165.00	7387.00
166.00	8775.00
167.00	10345.00
168.00	11966.00
169.00	13202.00
170.00	13598.00
171.00	13402.00
172.00	12331.00
173.00	11007.00
174.00	9386.00
175.00	7622.00
176.00	6231.00
177.00	5348.00
178.00	4739.00
179.00	4487.00
180.00	4551.00
181.00	4469.00
182.00	4524.00
183.00	4728.00
184.00	4762.00
185.00	4839.00
186.00	4859.00
187.00	4887.00
188.00	4902.00
189.00	4735.00
190.00	4687.00
191.00	4676.00
192.00	4479.00
193.00	4177.00
194.00	3996.00
195.00	3799.00
196.00	3486.00
197.00	3326.00
198.00	3366.00
199.00	3346.00
200.00	3437.00
201.00	3637.00
202.00	3967.00
203.00	4701.00
204.00	5906.00
205.00	7654.00
206.00	10390.00
207.00	13579.00
208.00	17581.00
209.00	22178.00
210.00	25676.00
211.00	28621.00
212.00	29951.00
213.00	29390.00
214.00	26689.00
215.00	22926.00
216.00	18570.00
217.00	14194.00
218.00	10779.00
219.00	7915.00
220.00	6064.00
221.00	4928.00
222.00	4478.00
223.00	4388.00
224.00	4522.00
225.00	5029.00
226.00	5638.00
227.00	6209.00
228.00	7074.00
229.00	7557.00
230.00	7962.00
231.00	7871.00
232.00	7727.00
233.00	7006.00
234.00	6532.00
235.00	5729.00
236.00	5080.00
237.00	4432.00
238.00	4092.00
239.00	3845.00
240.00	3508.00
241.00	3668.00
242.00	3539.00
243.00	3649.00
244.00	3715.00
245.00	3852.00
246.00	4173.00
247.00	4765.00
248.00	6035.00
249.00	7992.00
250.00	11193.00
251.00	16207.00
252.00	23170.00
253.00	33546.00
254.00	46419.00
255.00	60624.00
256.00	75499.00
257.00	88896.00
258.00	97746.00
259.00	100435.00
260.00	96324.00
261.00	87722.00
262.00	73919.00
263.00	60055.00
264.00	45627.00
265.00	33708.00
266.00	24680.00
267.00	17867.00
268.00	13580.00
269.00	10588.00
270.00	8968.00
271.00	7949.00
272.00	7616.00
273.00	7581.00
274.00	8029.00
275.00	9013.00
276.00	10143.00
277.00	12282.00
278.00	14658.00
279.00	17204.00
280.00	20180.00
281.00	22373.00
282.00	24406.00
283.00	25161.00
284.00	24957.00
285.00	23443.00
286.00	21064.00
287.00	18682.00
288.00	15485.00
289.00	13246.00
290.00	11136.00
291.00	9794.00
292.00	8754.00
293.00	8330.00
294.00	8172.00
295.00	7923.00
296.00	8120.00
297.00	8146.00
298.00	8173.00
299.00	8365.00
300.00	8670.00
301.00	8892.00
302.00	9142.00
303.00	9517.00
304.00	9943.00
305.00	10366.00
306.00	10643.00
307.00	10945.00
308.00	11378.00
309.00	11598.00
310.00	12043.00
311.00	12107.00
312.00	12031.00
313.00	11853.00
314.00	11525.00
315.00	11419.00
316.00	11511.00
317.00	11210.00
318.00	11240.00
319.00	11245.00
320.00	11287.00
321.00	11586.00
322.00	11502.00
323.00	11400.00
324.00	11736.00
325.00	12093.00
326.00	12449.00
327.00	12650.00
328.00	12840.00
329.00	13196.00
330.00	13735.00
331.00	14225.00
332.00	14900.00
333.00	15279.00
334.00	16288.00
335.00	16881.00
336.00	17740.00
337.00	18348.00
338.00	18704.00
339.00	18874.00
340.00	18817.00
341.00	18504.00
342.00	17953.00
343.00	17760.00
344.00	17575.00
345.00	17104.00
346.00	17146.00
347.00	17262.00
348.00	17476.00
349.00	17966.00
350.00	18517.00
351.00	19688.00
352.00	20806.00
353.00	23599.00
354.00	28114.00
355.00	35771.00
356.00	48826.00
357.00	69780.00
358.00	102386.00
359.00	148678.00
360.00	213289.00
361.00	296558.00
362.00	393938.00
363.00	498056.00
364.00	600315.00
365.00	686196.00
366.00	742235.00
367.00	761880.00
368.00	737718.00
369.00	675015.00
370.00	586225.00
371.00	483091.00
372.00	374866.00
373.00	278957.00
374.00	199295.00
375.00	137506.00
376.00	93641.00
377.00	65243.00
378.00	47487.00
379.00	37586.00
380.00	31652.00
381.00	28955.00
382.00	28147.00
383.00	27490.00
384.00	27660.00
385.00	27913.00
386.00	28670.00
387.00	29205.00
388.00	29727.00
389.00	30617.00
390.00	31536.00
391.00	32863.00
392.00	34860.00
393.00	37846.00
394.00	41306.00
395.00	46951.00
396.00	54893.00
397.00	65731.00
398.00	78911.00
399.00	93534.00
400.00	111150.00
401.00	127392.00
402.00	143585.00
403.00	154855.00
404.00	160625.00
405.00	158992.00
406.00	151616.00
407.00	139529.00
408.00	123066.00
409.00	106145.00
410.00	89348.00
411.00	74353.00
412.00	62787.00
413.00	52997.00
414.00	47259.00
415.00	42793.00
416.00	40947.00
417.00	39896.00
418.00	39831.00
419.00	40129.00
420.00	41520.00
421.00	42753.00
422.00	45190.00
423.00	46983.00
424.00	49188.00
425.00	51280.00
426.00	52933.00
427.00	54760.00
428.00	55769.00
429.00	56159.00
430.00	55180.00
431.00	54415.00
432.00	52945.00
433.00	51100.00
434.00	49971.00
435.00	48456.00
436.00	47146.00
437.00	47265.00
438.00	46825.00
439.00	46922.00
440.00	47217.00
441.00	47228.00
442.00	48377.00
443.00	48301.00
444.00	48906.00
445.00	49210.00
446.00	49967.00
447.00	50564.00
448.00	50888.00
449.00	51221.00
450.00	53006.00
451.00	53011.00
452.00	54275.00
453.00	55141.00
454.00	56135.00
455.00	57577.00
456.00	59402.00
457.00	60973.00
458.00	62857.00
459.00	64118.00
460.00	65302.00
461.00	66957.00
462.00	68018.00
463.00	68730.00
464.00	68925.00
465.00	69011.00
466.00	69837.00
467.00	70215.00
468.00	70736.00
469.00	70874.00
470.00	71819.00
471.00	71549.00
472.00	71668.00
473.00	72264.00
474.00	72961.00
475.00	73031.00
476.00	73671.00
477.00	73968.00
478.00	74903.00
479.00	74750.00
480.00	74887.00
481.00	75123.00
482.00	74692.00
483.00	74932.00
484.00	73519.00
485.00	73724.00
486.00	73303.00
487.00	73748.00
488.00	73833.00
489.00	74312.00
490.00	75581.00
491.00	76481.00
492.00	77309.00
493.00	78349.00
494.00	79336.00
495.00	78905.00
496.00	79740.00
497.00	79298.00
498.00	79103.00
499.00	78889.00
500.00	78676.00
501.00	78309.00
502.00	77928.00
503.00	78096.00
504.00	78012.00
505.00	78910.00
506.00	79629.00
507.00	79812.00
508.00	80643.00
509.00	80990.00
510.00	82213.00
511.00	81942.00
512.00	82649.00
513.00	83157.00
514.00	84186.00
515.00	84324.00
516.00	85181.00
517.00	85863.00
518.00	86609.00
519.00	87139.00
520.00	88231.00
521.00	88579.00
522.00	89721.00
523.00	91019.00
524.00	92232.00
525.00	93220.00
526.00	94530.00
527.00	96241.00
528.00	97625.00
529.00	98023.00
530.00	99776.00
531.00	100425.00
532.00	101178.00
533.00	102070.00
534.00	103076.00
535.00	103569.00
536.00	104770.00
537.00	105194.00
538.00	105319.00
539.00	106286.00
540.00	107010.00
541.00	107956.00
542.00	108206.00
543.00	109356.00
544.00	109595.00
545.00	110603.00
546.00	112000.00
547.00	112431.00
548.00	113185.00
549.00	114512.00
550.00	115572.00
551.00	116055.00
552.00	116591.00
553.00	116772.00
554.00	117076.00
555.00	117569.00
556.00	117050.00
557.00	116947.00
558.00	117259.00
559.00	116803.00
560.00	117116.00
561.00	116639.00
562.00	117016.00
563.00	117677.00
564.00	117163.00
565.00	118100.00
566.00	118515.00
567.00	119120.00
568.00	119771.00
569.00	120093.00
570.00	120804.00
571.00	121085.00
572.00	121065.00
573.00	121189.00
574.00	122079.00
575.00	122684.00
576.00	122482.00
577.00	122674.00
578.00	123770.00
579.00	124022.00
580.00	124075.00
581.00	125008.00
582.00	125501.00
583.00	125823.00
584.00	126559.00
585.00	128017.00
586.00	127853.00
587.00	129064.00
588.00	129022.00
589.00	129608.00
590.00	130572.00
591.00	131382.00
592.00	131476.00
593.00	131614.00
594.00	133297.00
595.00	133866.00
596.00	133856.00
597.00	135030.00
598.00	136033.00
599.00	136123.00
600.00	137309.00
601.00	137850.00
602.00	138133.00
603.00	139192.00
604.00	139879.00
605.00	140368.00
606.00	141171.00
607.00	142023.00
608.00	142171.00
609.00	143036.00
610.00	142911.00
611.00	144232.00
612.00	145243.00
613.00	146101.00
614.00	146784.00
615.00	146771.00
616.00	147757.00
617.00	148932.00
618.00	149583.00
619.00	149957.00
620.00	151105.00
621.00	152627.00
622.00	152592.00
623.00	153516.00
624.00	153829.00
625.00	154372.00
626.00	154319.00
627.00	156032.00
628.00	155962.00
629.00	156483.00
630.00	156858.00
631.00	157571.00
632.00	157940.00
633.00	159521.00
634.00	159944.00
635.00	160933.00
636.00	161635.00
637.00	161234.00
638.00	162889.00
639.00	162844.00
640.00	163998.00
641.00	165530.00
642.00	165881.00
643.00	166216.00
644.00	167250.00
645.00	167772.00
646.00	168740.00
647.00	168631.00
648.00	168922.00
649.00	169706.00
650.00	169326.00
651.00	170644.00
652.00	170909.00
653.00	171520.00
654.00	171823.00
655.00	172081.00
656.00	173161.00
657.00	173748.00
658.00	174020.00
659.00	174967.00
660.00	175420.00
661.00	176761.00
662.00	176358.00
663.00	176985.00
664.00	178793.00
665.00	178324.00
666.00	179446.00
667.00	181125.00
668.00	182503.00
669.00	184202.00
670.00	186177.00
671.00	188687.00
672.00	192148.00
673.00	196673.00
674.00	201597.00
675.00	206795.00
676.00	213551.00
677.00	218071.00
678.00	224882.00
679.00	229488.00
680.00	232763.00
681.00	234375.00
682.00	234881.00
683.00	233795.00
684.00	231043.00
685.00	226534.00
686.00	222021.00
687.00	216728.00
688.00	212825.00
689.00	207483.00
690.00	205018.00
691.00	202316.00
692.00	198855.00
693.00	198065.00
694.00	197491.00
695.00	195560.00
696.00	196800.00
697.00	196698.00
698.00	195963.00
699.00	197676.00
700.00	197588.00
701.00	198024.00
702.00	198959.00
703.00	199971.00
704.00	200442.00
705.00	200644.00
706.00	201393.00
707.00	201990.00
708.00	202458.00
709.00	202935.00
710.00	202952.00
711.00	204384.00
712.00	204866.00
713.00	206066.00
714.00	205446.00
715.00	206044.00
716.00	206477.00
717.00	206842.00
718.00	207840.00
719.00	208594.00
720.00	208176.00
721.00	209344.00
722.00	209863.00
723.00	210919.00
724.00	210322.00
725.00	209878.00
726.00	211916.00
727.00	211472.00
728.00	211746.00
729.00	212195.00
730.00	213606.00
731.00	213704.00
732.00	214042.00
733.00	214523.00
734.00	213946.00
735.00	215351.00
736.00	216147.00
737.00	215860.00
738.00	216344.00
739.00	217689.00
740.00	217043.00
741.00	217606.00
742.00	219180.00
743.00	219527.00
744.00	218813.00
745.00	220060.00
746.00	220255.00
747.00	220613.00
748.00	221201.00
749.00	221347.00
750.00	222449.00
751.00	223434.00
752.00	224977.00
753.00	226130.00
754.00	227380.00
755.00	228338.00
756.00	229702.00
757.00	231365.00
758.00	231221.00
759.00	233245.00
760.00	233952.00
761.00	234582.00
762.00	233753.00
763.00	233722.00
764.00	234586.00
765.00	232142.00
766.00	231676.00
767.00	232042.00
768.00	232198.00
769.00	230321.00
770.00	230330.00
771.00	229807.00
772.00	229384.00
773.00	230207.00
774.00	230400.00
775.00	229131.00
776.00	229743.00
777.00	229879.00
778.00	230855.00
779.00	230575.00
780.00	231065.00
781.00	230119.00
782.00	231061.00
783.00	231318.00
784.00	231019.00
785.00	232289.00
786.00	231388.00
787.00	233580.00
788.00	233219.00
789.00	234068.00
790.00	233643.00
791.00	234020.00
792.00	234487.00
793.00	234587.00
794.00	235794.00
795.00	236535.00
796.00	238302.00
797.00	238468.00
798.00	241713.00
799.00	243689.00
800.00	246792.00
801.00	249544.00
802.00	252947.00
803.00	256457.00
804.00	260443.00
805.00	264182.00
806.00	266664.00
807.00	269540.00
808.00	271617.00
809.00	271292.00
810.00	269906.00
811.00	270119.00
812.00	266525.00
813.00	264246.00
814.00	261431.00
815.00	257600.00
816.00	253641.00
817.00	251130.00
818.00	249325.00
819.00	246896.00
820.00	244729.00
821.00	244117.00
822.00	242645.00
823.00	242757.00
824.00	242006.00
825.00	243047.00
826.00	241786.00
827.00	241870.00
828.00	242621.00
829.00	242707.00
830.00	243219.00
831.00	242491.00
832.00	243386.00
833.00	243161.00
834.00	243168.00
835.00	243253.00
836.00	243741.00
837.00	244133.00
838.00	245419.00
839.00	245415.00
840.00	246101.00
841.00	245522.00
842.00	246818.00
843.00	247008.00
844.00	247714.00
845.00	248616.00
846.00	249246.00
847.00	249710.00
848.00	249350.00
849.00	249798.00
850.00	250631.00
851.00	250703.00
852.00	250872.00
853.00	252348.00
854.00	252222.00
855.00	253008.00
856.00	252433.00
857.00	251529.00
858.00	253197.00
859.00	252980.00
860.00	254719.00
861.00	253679.00
862.00	253371.00
863.00	254836.00
864.00	254580.00
865.00	253784.00
866.00	255174.00
867.00	255994.00
868.00	255247.00
869.00	256506.00
870.00	256232.00
871.00	257988.00
872.00	258497.00
873.00	258313.00
874.00	258830.00
875.00	259987.00
876.00	262460.00
877.00	262065.00
878.00	263227.00
879.00	263081.00
880.00	265868.00
881.00	265981.00
882.00	267416.00
883.00	267830.00
884.00	270157.00
885.00	271030.00
886.00	273138.00
887.00	275196.00
888.00	278157.00
889.00	279840.00
890.00	282586.00
891.00	285357.00
892.00	289174.00
893.00	291034.00
894.00	295789.00
895.00	298253.00
896.00	302809.00
897.00	307370.00
898.00	311983.00
899.00	317442.00
900.00	320496.00
901.00	325662.00
902.00	328422.00
903.00	332416.00
904.00	336326.00
905.00	340242.00
906.00	345522.00
907.00	349285.00
908.00	354944.00
909.00	360554.00
910.00	367517.00
911.00	374600.00
912.00	383043.00
913.00	393719.00
914.00	406028.00
915.00	419686.00
916.00	435718.00
917.00	451920.00
918.00	472099.00
919.00	493133.00
920.00	517785.00
921.00	542265.00
922.00	572492.00
923.00	602687.00
924.00	633446.00
925.00	669341.00
926.00	704288.00
927.00	744525.00
928.00	781679.00
929.00	821408.00
930.00	861037.00
931.00	897985.00
932.00	937784.00
933.00	969913.00
934.00	1004229.00
935.00	1035556.00
936.00	1060307.00
937.00	1079513.00
938.00	1097242.00
939.00	1108689.00
940.00	1114518.00
941.00	1115195.00
942.00	1109194.00
943.00	1101969.00
944.00	1086209.00
945.00	1067080.00
946.00	1042830.00
947.00	1013977.00
948.00	982603.00
949.00	946935.00
950.00	910905.00
951.00	873841.00
952.00	833993.00
953.00	793602.00
954.00	753727.00
955.00	712521.00
956.00	674349.00
957.00	636092.00
958.00	601886.00
959.00	566318.00
960.00	533445.00
961.00	504240.00
962.00	475460.00
963.00	450196.00
964.00	426461.00
965.00	405218.00
966.00	384490.00
967.00	365584.00
968.00	350084.00
969.00	334092.00
970.00	321845.00
971.00	309361.00
972.00	298527.00
973.00	289876.00
974.00	281491.00
975.00	274851.00
976.00	268305.00
977.00	263621.00
978.00	260494.00
979.00	259004.00
980.00	258451.00
981.00	260121.00
982.00	264109.00
983.00	268702.00
984.00	276436.00
985.00	288629.00
986.00	303031.00
987.00	319819.00
988.00	339902.00
989.00	361198.00
990.00	385254.00
991.00	409381.00
992.00	430986.00
993.00	452201.00
994.00	470179.00
995.00	482543.00
996.00	492683.00
997.00	496504.00
998.00	491926.00
999.00	481661.00
1000.00	466596.00
1001.00	445145.00
1002.00	419878.00
1003.00	392098.00
1004.00	363777.00
1005.00	335989.00
1006.00	309123.00
1007.00	284500.00
1008.00	264231.00
1009.00	246329.00
1010.00	232842.00
1011.00	220028.00
1012.00	211607.00
1013.00	205569.00
1014.00	200875.00
1015.00	199015.00
1016.00	195234.00
1017.00	195629.00
1018.00	195455.00
1019.00	196065.00
1020.00	195848.00
1021.00	196699.00
1022.00	198739.00
1023.00	200693.00
1024.00	201358.00
