Date:	2023-08-23		
Time:	11:45		
Sample name:	MI1A_B_C		
Position:	517.000049	mm	
Sample surface:	4.100000	cm	
Tube anode:	Mo		
Tube voltage:	30	kV	
Tube current:	30	mA	
Comments	not in position		
Gain	0.060000		
peaking_time	1.500000	m-sec	
trigger_threshold	653.076172	V	
mca_bin_width	17.500000	no:	
number_mca_channels	1024.000000	no:	
gap_time	0.080000	m-sec	
trigger_peaking_time	0.060000	m-sec	
livetime	6.182460	seconds	
runtime	10.007211	seconds	
input_count_rate	69149.273643	cps	
output_count_rate	42719.993758	cps	
triggers	0	seconds	
events_in_run	0	seconds	
channel	content		
 1.00	 0.00
 2.00	 0.00
 3.00	 0.00
 4.00	 0.00
 5.00	 0.00
 6.00	 0.00
 7.00	 0.00
 8.00	 0.00
 9.00	 0.00
10.00	 0.00
11.00	 0.00
12.00	 0.00
13.00	 0.00
14.00	 0.00
15.00	 0.00
16.00	 0.00
17.00	 0.00
18.00	 0.00
19.00	 0.00
20.00	 0.00
21.00	 0.00
22.00	 0.00
23.00	 0.00
24.00	 0.00
25.00	 0.00
26.00	 0.00
27.00	 0.00
28.00	 0.00
29.00	 0.00
30.00	 0.00
31.00	 1.00
32.00	 1.00
33.00	 4.00
34.00	 7.00
35.00	13.00
36.00	12.00
37.00	28.00
38.00	39.00
39.00	44.00
40.00	103.00
41.00	112.00
42.00	213.00
43.00	226.00
44.00	358.00
45.00	492.00
46.00	630.00
47.00	784.00
48.00	1085.00
49.00	1334.00
50.00	1800.00
51.00	2154.00
52.00	2708.00
53.00	3217.00
54.00	3916.00
55.00	4671.00
56.00	5459.00
57.00	5987.00
58.00	6948.00
59.00	7606.00
60.00	8601.00
61.00	9238.00
62.00	10068.00
63.00	10640.00
64.00	11230.00
65.00	12223.00
66.00	12432.00
67.00	12902.00
68.00	13226.00
69.00	13539.00
70.00	13498.00
71.00	13811.00
72.00	13529.00
73.00	13631.00
74.00	13796.00
75.00	13355.00
76.00	13307.00
77.00	13021.00
78.00	13105.00
79.00	12908.00
80.00	12849.00
81.00	12959.00
82.00	13077.00
83.00	13121.00
84.00	13361.00
85.00	13310.00
86.00	13120.00
87.00	13037.00
88.00	12559.00
89.00	12059.00
90.00	11463.00
91.00	11112.00
92.00	10692.00
93.00	10373.00
94.00	10174.00
95.00	10227.00
96.00	9929.00
97.00	9971.00
98.00	9780.00
99.00	9543.00
100.00	9492.00
101.00	9426.00
102.00	9454.00
103.00	9314.00
104.00	9274.00
105.00	9233.00
106.00	9141.00
107.00	9164.00
108.00	9125.00
109.00	8912.00
110.00	8765.00
111.00	8625.00
112.00	8761.00
113.00	8458.00
114.00	8209.00
115.00	8274.00
116.00	7941.00
117.00	7682.00
118.00	7666.00
119.00	7418.00
120.00	7478.00
121.00	7189.00
122.00	7038.00
123.00	7026.00
124.00	6783.00
125.00	6821.00
126.00	6569.00
127.00	6597.00
128.00	6427.00
129.00	6477.00
130.00	6308.00
131.00	6249.00
132.00	6199.00
133.00	6118.00
134.00	6058.00
135.00	5949.00
136.00	5741.00
137.00	5555.00
138.00	5567.00
139.00	5391.00
140.00	5243.00
141.00	5200.00
142.00	5116.00
143.00	5028.00
144.00	4874.00
145.00	4972.00
146.00	4842.00
147.00	4868.00
148.00	4895.00
149.00	4639.00
150.00	4696.00
151.00	4779.00
152.00	4551.00
153.00	4487.00
154.00	4413.00
155.00	4407.00
156.00	4400.00
157.00	4296.00
158.00	4254.00
159.00	4363.00
160.00	4125.00
161.00	4567.00
162.00	4756.00
163.00	5261.00
164.00	6065.00
165.00	7043.00
166.00	8479.00
167.00	9797.00
168.00	11243.00
169.00	12407.00
170.00	12795.00
171.00	12665.00
172.00	11865.00
173.00	10480.00
174.00	8848.00
175.00	7466.00
176.00	6182.00
177.00	5266.00
178.00	4795.00
179.00	4451.00
180.00	4403.00
181.00	4464.00
182.00	4572.00
183.00	4481.00
184.00	4533.00
185.00	4529.00
186.00	4364.00
187.00	4321.00
188.00	4279.00
189.00	4191.00
190.00	3910.00
191.00	3908.00
192.00	3773.00
193.00	3582.00
194.00	3591.00
195.00	3493.00
196.00	3401.00
197.00	3482.00
198.00	3300.00
199.00	3183.00
200.00	3375.00
201.00	3272.00
202.00	3521.00
203.00	3574.00
204.00	3754.00
205.00	4110.00
206.00	4729.00
207.00	5188.00
208.00	6018.00
209.00	6887.00
210.00	7562.00
211.00	8023.00
212.00	8395.00
213.00	8301.00
214.00	7755.00
215.00	6960.00
216.00	6185.00
217.00	5322.00
218.00	4589.00
219.00	4103.00
220.00	3825.00
221.00	3557.00
222.00	3543.00
223.00	3512.00
224.00	3494.00
225.00	3527.00
226.00	3758.00
227.00	3768.00
228.00	3793.00
229.00	4039.00
230.00	3999.00
231.00	4167.00
232.00	3993.00
233.00	3737.00
234.00	3830.00
235.00	3714.00
236.00	3598.00
237.00	3412.00
238.00	3524.00
239.00	3516.00
240.00	3444.00
241.00	3352.00
242.00	3580.00
243.00	3415.00
244.00	3563.00
245.00	3444.00
246.00	3589.00
247.00	3652.00
248.00	3844.00
249.00	3970.00
250.00	4186.00
251.00	4690.00
252.00	5176.00
253.00	5900.00
254.00	6675.00
255.00	7350.00
256.00	7894.00
257.00	8634.00
258.00	8978.00
259.00	8942.00
260.00	8645.00
261.00	8364.00
262.00	7869.00
263.00	7254.00
264.00	6918.00
265.00	6378.00
266.00	6113.00
267.00	6024.00
268.00	5973.00
269.00	5935.00
270.00	5862.00
271.00	5665.00
272.00	5755.00
273.00	6064.00
274.00	6087.00
275.00	6235.00
276.00	6476.00
277.00	6664.00
278.00	6831.00
279.00	6984.00
280.00	7168.00
281.00	7229.00
282.00	7365.00
283.00	7228.00
284.00	7143.00
285.00	7100.00
286.00	6970.00
287.00	7065.00
288.00	6895.00
289.00	6830.00
290.00	6870.00
291.00	6834.00
292.00	7043.00
293.00	7138.00
294.00	7260.00
295.00	7379.00
296.00	7468.00
297.00	7611.00
298.00	7774.00
299.00	7873.00
300.00	8153.00
301.00	8175.00
302.00	8294.00
303.00	8432.00
304.00	8714.00
305.00	8751.00
306.00	9158.00
307.00	9272.00
308.00	9471.00
309.00	9501.00
310.00	9732.00
311.00	10083.00
312.00	10106.00
313.00	10197.00
314.00	10106.00
315.00	10245.00
316.00	10405.00
317.00	10389.00
318.00	10241.00
319.00	10451.00
320.00	10857.00
321.00	10859.00
322.00	10728.00
323.00	11115.00
324.00	11355.00
325.00	11358.00
326.00	11513.00
327.00	11979.00
328.00	11822.00
329.00	12112.00
330.00	12447.00
331.00	12636.00
332.00	12848.00
333.00	12913.00
334.00	13387.00
335.00	13646.00
336.00	13615.00
337.00	14212.00
338.00	14319.00
339.00	14352.00
340.00	14481.00
341.00	14646.00
342.00	14867.00
343.00	14872.00
344.00	15131.00
345.00	15206.00
346.00	15241.00
347.00	15599.00
348.00	15802.00
349.00	16084.00
350.00	16713.00
351.00	17032.00
352.00	18024.00
353.00	19221.00
354.00	21259.00
355.00	24483.00
356.00	29793.00
357.00	38155.00
358.00	51811.00
359.00	70978.00
360.00	97736.00
361.00	132083.00
362.00	172641.00
363.00	215829.00
364.00	259840.00
365.00	295571.00
366.00	320228.00
367.00	329059.00
368.00	318670.00
369.00	291877.00
370.00	256289.00
371.00	212889.00
372.00	167982.00
373.00	128975.00
374.00	94846.00
375.00	69786.00
376.00	51899.00
377.00	39897.00
378.00	33004.00
379.00	28854.00
380.00	26690.00
381.00	25697.00
382.00	25653.00
383.00	25588.00
384.00	25965.00
385.00	26127.00
386.00	26550.00
387.00	27419.00
388.00	27746.00
389.00	27971.00
390.00	28518.00
391.00	29579.00
392.00	30377.00
393.00	31499.00
394.00	33489.00
395.00	35803.00
396.00	39148.00
397.00	43311.00
398.00	48738.00
399.00	55216.00
400.00	62143.00
401.00	69217.00
402.00	76142.00
403.00	80782.00
404.00	82977.00
405.00	83265.00
406.00	80641.00
407.00	76812.00
408.00	69689.00
409.00	62807.00
410.00	56751.00
411.00	50656.00
412.00	45824.00
413.00	42599.00
414.00	40657.00
415.00	39429.00
416.00	38860.00
417.00	38868.00
418.00	39255.00
419.00	40079.00
420.00	41530.00
421.00	43029.00
422.00	45030.00
423.00	47121.00
424.00	49165.00
425.00	51874.00
426.00	54398.00
427.00	55013.00
428.00	56311.00
429.00	56579.00
430.00	55907.00
431.00	54585.00
432.00	53615.00
433.00	51755.00
434.00	50210.00
435.00	49113.00
436.00	48381.00
437.00	47660.00
438.00	47474.00
439.00	47760.00
440.00	47694.00
441.00	48120.00
442.00	48339.00
443.00	48840.00
444.00	49398.00
445.00	50383.00
446.00	50675.00
447.00	51138.00
448.00	51876.00
449.00	52309.00
450.00	53093.00
451.00	53351.00
452.00	54430.00
453.00	55568.00
454.00	56387.00
455.00	57634.00
456.00	58692.00
457.00	60188.00
458.00	61540.00
459.00	62273.00
460.00	64616.00
461.00	65444.00
462.00	66355.00
463.00	67406.00
464.00	68350.00
465.00	68941.00
466.00	69937.00
467.00	70616.00
468.00	71390.00
469.00	71799.00
470.00	72658.00
471.00	72318.00
472.00	73192.00
473.00	73278.00
474.00	74006.00
475.00	74246.00
476.00	74459.00
477.00	75323.00
478.00	75977.00
479.00	76315.00
480.00	75963.00
481.00	76217.00
482.00	75730.00
483.00	75345.00
484.00	74843.00
485.00	74404.00
486.00	73310.00
487.00	73439.00
488.00	72930.00
489.00	72570.00
490.00	72558.00
491.00	73166.00
492.00	73507.00
493.00	73931.00
494.00	74506.00
495.00	75121.00
496.00	75470.00
497.00	76617.00
498.00	76656.00
499.00	76616.00
500.00	77045.00
501.00	78194.00
502.00	78445.00
503.00	79183.00
504.00	79502.00
505.00	80642.00
506.00	81092.00
507.00	81578.00
508.00	82159.00
509.00	82822.00
510.00	83106.00
511.00	84242.00
512.00	85418.00
513.00	85281.00
514.00	86114.00
515.00	87161.00
516.00	87552.00
517.00	87908.00
518.00	88599.00
519.00	90243.00
520.00	90776.00
521.00	91301.00
522.00	92055.00
523.00	93365.00
524.00	94465.00
525.00	95848.00
526.00	96653.00
527.00	98247.00
528.00	99076.00
529.00	100318.00
530.00	101282.00
531.00	102939.00
532.00	103597.00
533.00	104938.00
534.00	105209.00
535.00	106343.00
536.00	107913.00
537.00	108489.00
538.00	109248.00
539.00	109841.00
540.00	110997.00
541.00	111977.00
542.00	112466.00
543.00	112947.00
544.00	113948.00
545.00	114351.00
546.00	115204.00
547.00	115811.00
548.00	117257.00
549.00	118235.00
550.00	119492.00
551.00	119777.00
552.00	120721.00
553.00	121820.00
554.00	122101.00
555.00	121881.00
556.00	122189.00
557.00	122560.00
558.00	122842.00
559.00	122524.00
560.00	122053.00
561.00	122801.00
562.00	121920.00
563.00	123516.00
564.00	122620.00
565.00	123449.00
566.00	124164.00
567.00	124516.00
568.00	125882.00
569.00	126578.00
570.00	126046.00
571.00	127372.00
572.00	127498.00
573.00	128557.00
574.00	129099.00
575.00	129162.00
576.00	129439.00
577.00	129872.00
578.00	130478.00
579.00	131257.00
580.00	131149.00
581.00	131842.00
582.00	132497.00
583.00	133262.00
584.00	133617.00
585.00	134942.00
586.00	134879.00
587.00	136066.00
588.00	137167.00
589.00	137747.00
590.00	138253.00
591.00	138481.00
592.00	139402.00
593.00	139536.00
594.00	140820.00
595.00	141762.00
596.00	142208.00
597.00	143028.00
598.00	143788.00
599.00	144452.00
600.00	146017.00
601.00	146546.00
602.00	146946.00
603.00	147827.00
604.00	148062.00
605.00	148711.00
606.00	150027.00
607.00	150979.00
608.00	150781.00
609.00	152246.00
610.00	152240.00
611.00	152760.00
612.00	154897.00
613.00	155182.00
614.00	156424.00
615.00	156382.00
616.00	157674.00
617.00	158254.00
618.00	158718.00
619.00	160143.00
620.00	160787.00
621.00	161389.00
622.00	162717.00
623.00	163300.00
624.00	163437.00
625.00	164581.00
626.00	164992.00
627.00	166144.00
628.00	167160.00
629.00	167098.00
630.00	167522.00
631.00	168972.00
632.00	169208.00
633.00	169986.00
634.00	170323.00
635.00	170911.00
636.00	171826.00
637.00	172234.00
638.00	172747.00
639.00	174158.00
640.00	175111.00
641.00	175967.00
642.00	176122.00
643.00	176759.00
644.00	177281.00
645.00	178606.00
646.00	180238.00
647.00	180498.00
648.00	180270.00
649.00	180989.00
650.00	182085.00
651.00	182628.00
652.00	184050.00
653.00	183996.00
654.00	183348.00
655.00	185241.00
656.00	185621.00
657.00	187422.00
658.00	187979.00
659.00	188676.00
660.00	188511.00
661.00	189533.00
662.00	190413.00
663.00	191301.00
664.00	191989.00
665.00	192407.00
666.00	193936.00
667.00	194979.00
668.00	196009.00
669.00	197915.00
670.00	199976.00
671.00	202278.00
672.00	205609.00
673.00	209306.00
674.00	213580.00
675.00	218359.00
676.00	224410.00
677.00	229833.00
678.00	234838.00
679.00	239991.00
680.00	242917.00
681.00	245836.00
682.00	246164.00
683.00	244398.00
684.00	242366.00
685.00	239616.00
686.00	235465.00
687.00	230927.00
688.00	225546.00
689.00	222268.00
690.00	220409.00
691.00	217334.00
692.00	214757.00
693.00	213791.00
694.00	213673.00
695.00	213441.00
696.00	213468.00
697.00	214001.00
698.00	215600.00
699.00	214859.00
700.00	215752.00
701.00	216183.00
702.00	216864.00
703.00	216528.00
704.00	217553.00
705.00	219146.00
706.00	218763.00
707.00	220534.00
708.00	220596.00
709.00	221088.00
710.00	221242.00
711.00	221641.00
712.00	223447.00
713.00	223109.00
714.00	224194.00
715.00	223854.00
716.00	225002.00
717.00	225827.00
718.00	225977.00
719.00	226701.00
720.00	227979.00
721.00	228323.00
722.00	228018.00
723.00	230061.00
724.00	229501.00
725.00	230538.00
726.00	230842.00
727.00	230891.00
728.00	232023.00
729.00	233684.00
730.00	232188.00
731.00	233490.00
732.00	233332.00
733.00	233919.00
734.00	234993.00
735.00	235214.00
736.00	235681.00
737.00	237160.00
738.00	236601.00
739.00	238641.00
740.00	238631.00
741.00	238789.00
742.00	238974.00
743.00	238974.00
744.00	240034.00
745.00	241107.00
746.00	242028.00
747.00	241387.00
748.00	242807.00
749.00	243586.00
750.00	243526.00
751.00	245561.00
752.00	245533.00
753.00	248149.00
754.00	248152.00
755.00	249442.00
756.00	251531.00
757.00	251804.00
758.00	253306.00
759.00	253586.00
760.00	255087.00
761.00	255935.00
762.00	255103.00
763.00	254951.00
764.00	255694.00
765.00	254621.00
766.00	254529.00
767.00	253049.00
768.00	253044.00
769.00	253047.00
770.00	253610.00
771.00	253661.00
772.00	253038.00
773.00	252637.00
774.00	252829.00
775.00	252361.00
776.00	252901.00
777.00	253196.00
778.00	252717.00
779.00	253992.00
780.00	254347.00
781.00	254802.00
782.00	255083.00
783.00	255548.00
784.00	255921.00
785.00	255744.00
786.00	255884.00
787.00	256837.00
788.00	256741.00
789.00	257946.00
790.00	257350.00
791.00	257824.00
792.00	259033.00
793.00	259163.00
794.00	258863.00
795.00	259406.00
796.00	260207.00
797.00	260790.00
798.00	261270.00
799.00	261435.00
800.00	262631.00
801.00	262999.00
802.00	263837.00
803.00	264699.00
804.00	265754.00
805.00	266982.00
806.00	267463.00
807.00	268328.00
808.00	269346.00
809.00	269119.00
810.00	270108.00
811.00	269091.00
812.00	269638.00
813.00	268512.00
814.00	269314.00
815.00	268481.00
816.00	268389.00
817.00	268641.00
818.00	268092.00
819.00	268512.00
820.00	268527.00
821.00	267825.00
822.00	269004.00
823.00	267790.00
824.00	269925.00
825.00	268834.00
826.00	269490.00
827.00	269109.00
828.00	269204.00
829.00	270661.00
830.00	270224.00
831.00	270955.00
832.00	271147.00
833.00	270959.00
834.00	271673.00
835.00	272651.00
836.00	273195.00
837.00	272815.00
838.00	272859.00
839.00	273868.00
840.00	274058.00
841.00	273504.00
842.00	274529.00
843.00	275027.00
844.00	275844.00
845.00	276327.00
846.00	276879.00
847.00	277145.00
848.00	276903.00
849.00	277340.00
850.00	277781.00
851.00	277554.00
852.00	277935.00
853.00	279401.00
854.00	278649.00
855.00	280411.00
856.00	280493.00
857.00	281341.00
858.00	281220.00
859.00	281589.00
860.00	282361.00
861.00	283360.00
862.00	283678.00
863.00	283762.00
864.00	284441.00
865.00	284582.00
866.00	285407.00
867.00	286364.00
868.00	286400.00
869.00	286926.00
870.00	288164.00
871.00	288730.00
872.00	289729.00
873.00	289661.00
874.00	291316.00
875.00	290811.00
876.00	293102.00
877.00	294206.00
878.00	295440.00
879.00	296195.00
880.00	298122.00
881.00	298434.00
882.00	299800.00
883.00	300852.00
884.00	302966.00
885.00	304053.00
886.00	305837.00
887.00	307927.00
888.00	310239.00
889.00	311050.00
890.00	313592.00
891.00	315528.00
892.00	318381.00
893.00	320638.00
894.00	323386.00
895.00	326840.00
896.00	329143.00
897.00	331773.00
898.00	336415.00
899.00	339699.00
900.00	345547.00
901.00	348017.00
902.00	354390.00
903.00	358166.00
904.00	363749.00
905.00	369866.00
906.00	376165.00
907.00	383373.00
908.00	391193.00
909.00	399897.00
910.00	408912.00
911.00	421065.00
912.00	432559.00
913.00	444625.00
914.00	459505.00
915.00	476856.00
916.00	495649.00
917.00	516633.00
918.00	539911.00
919.00	565251.00
920.00	592387.00
921.00	621783.00
922.00	655850.00
923.00	689620.00
924.00	727473.00
925.00	767444.00
926.00	809851.00
927.00	852656.00
928.00	894942.00
929.00	941219.00
930.00	985819.00
931.00	1027284.00
932.00	1071880.00
933.00	1108127.00
934.00	1145090.00
935.00	1178150.00
936.00	1205051.00
937.00	1227895.00
938.00	1244527.00
939.00	1258417.00
940.00	1261350.00
941.00	1262667.00
942.00	1254808.00
943.00	1240996.00
944.00	1222682.00
945.00	1198029.00
946.00	1172079.00
947.00	1138733.00
948.00	1101616.00
949.00	1059429.00
950.00	1017807.00
951.00	973895.00
952.00	930053.00
953.00	883706.00
954.00	838923.00
955.00	793454.00
956.00	750712.00
957.00	706944.00
958.00	668359.00
959.00	629896.00
960.00	593581.00
961.00	559773.00
962.00	528376.00
963.00	501012.00
964.00	475697.00
965.00	450412.00
966.00	427269.00
967.00	406983.00
968.00	388380.00
969.00	371703.00
970.00	356599.00
971.00	343773.00
972.00	331515.00
973.00	321525.00
974.00	313200.00
975.00	304638.00
976.00	297120.00
977.00	293826.00
978.00	288862.00
979.00	287037.00
980.00	286435.00
981.00	287811.00
982.00	292204.00
983.00	298081.00
984.00	307129.00
985.00	317934.00
986.00	332683.00
987.00	349821.00
988.00	371230.00
989.00	393403.00
990.00	417281.00
991.00	442553.00
992.00	465570.00
993.00	488023.00
994.00	506758.00
995.00	521116.00
996.00	529630.00
997.00	533237.00
998.00	528788.00
999.00	519351.00
1000.00	502057.00
1001.00	478603.00
1002.00	452679.00
1003.00	423186.00
1004.00	393502.00
1005.00	363736.00
1006.00	337077.00
1007.00	310002.00
1008.00	288428.00
1009.00	270107.00
1010.00	255198.00
1011.00	243013.00
1012.00	234473.00
1013.00	227397.00
1014.00	224156.00
1015.00	220610.00
1016.00	218892.00
1017.00	219254.00
1018.00	218211.00
1019.00	218723.00
1020.00	220082.00
1021.00	220929.00
1022.00	222050.00
1023.00	224592.00
1024.00	225874.00
