Date:	2023-08-22		
Time:	19:30		
Sample name:	DP1_DP2_NEB8A		
Position:	1488.000049	mm	
Sample surface:	5.316524	cm	
Tube anode:	Mo		
Tube voltage:	30	kV	
Tube current:	30	mA	
Comments	not in position		
Gain	0.060000		
peaking_time	1.500000	m-sec	
trigger_threshold	653.076172	V	
mca_bin_width	17.500000	no:	
number_mca_channels	1024.000000	no:	
gap_time	0.080000	m-sec	
trigger_peaking_time	0.060000	m-sec	
livetime	6.573228	seconds	
runtime	10.007559	seconds	
input_count_rate	58024.428521	cps	
output_count_rate	38111.692439	cps	
triggers	0	seconds	
events_in_run	0	seconds	
channel	content		
 1.00	 0.00
 2.00	 0.00
 3.00	 0.00
 4.00	 0.00
 5.00	 0.00
 6.00	 0.00
 7.00	 0.00
 8.00	 0.00
 9.00	 0.00
10.00	 0.00
11.00	 0.00
12.00	 0.00
13.00	 0.00
14.00	 0.00
15.00	 0.00
16.00	 0.00
17.00	 0.00
18.00	 0.00
19.00	 0.00
20.00	 0.00
21.00	 0.00
22.00	 0.00
23.00	 0.00
24.00	 0.00
25.00	 0.00
26.00	 0.00
27.00	 0.00
28.00	 0.00
29.00	 0.00
30.00	 0.00
31.00	 1.00
32.00	 3.00
33.00	 4.00
34.00	 4.00
35.00	 8.00
36.00	23.00
37.00	20.00
38.00	29.00
39.00	42.00
40.00	60.00
41.00	78.00
42.00	113.00
43.00	145.00
44.00	222.00
45.00	316.00
46.00	391.00
47.00	534.00
48.00	684.00
49.00	900.00
50.00	1131.00
51.00	1425.00
52.00	1808.00
53.00	2171.00
54.00	2609.00
55.00	3052.00
56.00	3454.00
57.00	3875.00
58.00	4393.00
59.00	5081.00
60.00	5536.00
61.00	6004.00
62.00	6515.00
63.00	6860.00
64.00	7333.00
65.00	7736.00
66.00	8037.00
67.00	8397.00
68.00	8628.00
69.00	8613.00
70.00	8804.00
71.00	8725.00
72.00	8858.00
73.00	8802.00
74.00	8717.00
75.00	8622.00
76.00	8606.00
77.00	8463.00
78.00	8485.00
79.00	8532.00
80.00	8147.00
81.00	8298.00
82.00	8347.00
83.00	8458.00
84.00	8541.00
85.00	8641.00
86.00	8639.00
87.00	8469.00
88.00	8186.00
89.00	7700.00
90.00	7191.00
91.00	7180.00
92.00	6938.00
93.00	6751.00
94.00	6699.00
95.00	6522.00
96.00	6433.00
97.00	6333.00
98.00	6245.00
99.00	6230.00
100.00	6046.00
101.00	6161.00
102.00	6102.00
103.00	6075.00
104.00	5987.00
105.00	6092.00
106.00	5879.00
107.00	5817.00
108.00	5831.00
109.00	5751.00
110.00	5664.00
111.00	5544.00
112.00	5531.00
113.00	5493.00
114.00	5397.00
115.00	5403.00
116.00	5216.00
117.00	5075.00
118.00	4931.00
119.00	4787.00
120.00	4773.00
121.00	4594.00
122.00	4484.00
123.00	4573.00
124.00	4344.00
125.00	4479.00
126.00	4404.00
127.00	4397.00
128.00	4353.00
129.00	4445.00
130.00	4460.00
131.00	4461.00
132.00	4597.00
133.00	4522.00
134.00	4448.00
135.00	4301.00
136.00	4077.00
137.00	3902.00
138.00	3761.00
139.00	3622.00
140.00	3705.00
141.00	3492.00
142.00	3392.00
143.00	3410.00
144.00	3261.00
145.00	3233.00
146.00	3343.00
147.00	3400.00
148.00	3265.00
149.00	3159.00
150.00	3243.00
151.00	3270.00
152.00	3068.00
153.00	3088.00
154.00	3068.00
155.00	3064.00
156.00	2847.00
157.00	2964.00
158.00	2803.00
159.00	2867.00
160.00	2815.00
161.00	2815.00
162.00	3034.00
163.00	3281.00
164.00	3756.00
165.00	4225.00
166.00	4980.00
167.00	5889.00
168.00	6534.00
169.00	7204.00
170.00	7582.00
171.00	7401.00
172.00	6986.00
173.00	6104.00
174.00	5397.00
175.00	4574.00
176.00	3956.00
177.00	3311.00
178.00	3030.00
179.00	2823.00
180.00	2835.00
181.00	2786.00
182.00	2842.00
183.00	2945.00
184.00	3021.00
185.00	2897.00
186.00	2906.00
187.00	2826.00
188.00	2904.00
189.00	2875.00
190.00	2893.00
191.00	2948.00
192.00	2739.00
193.00	2554.00
194.00	2388.00
195.00	2421.00
196.00	2358.00
197.00	2236.00
198.00	2250.00
199.00	2178.00
200.00	2227.00
201.00	2243.00
202.00	2358.00
203.00	2599.00
204.00	2876.00
205.00	3322.00
206.00	3965.00
207.00	4924.00
208.00	5999.00
209.00	7112.00
210.00	8117.00
211.00	9092.00
212.00	9336.00
213.00	9132.00
214.00	8515.00
215.00	7648.00
216.00	6371.00
217.00	5073.00
218.00	4198.00
219.00	3505.00
220.00	2935.00
221.00	2597.00
222.00	2409.00
223.00	2349.00
224.00	2531.00
225.00	2583.00
226.00	2673.00
227.00	2967.00
228.00	2968.00
229.00	3033.00
230.00	3261.00
231.00	3242.00
232.00	3108.00
233.00	3100.00
234.00	2927.00
235.00	2759.00
236.00	2545.00
237.00	2406.00
238.00	2282.00
239.00	2287.00
240.00	2163.00
241.00	2203.00
242.00	2183.00
243.00	2286.00
244.00	2230.00
245.00	2254.00
246.00	2276.00
247.00	2416.00
248.00	2250.00
249.00	2396.00
250.00	2571.00
251.00	2577.00
252.00	2798.00
253.00	2988.00
254.00	3185.00
255.00	3576.00
256.00	3974.00
257.00	4114.00
258.00	4253.00
259.00	4368.00
260.00	4301.00
261.00	4312.00
262.00	3909.00
263.00	3799.00
264.00	3718.00
265.00	3501.00
266.00	3301.00
267.00	3109.00
268.00	3161.00
269.00	3169.00
270.00	3186.00
271.00	3127.00
272.00	3256.00
273.00	3206.00
274.00	3288.00
275.00	3386.00
276.00	3441.00
277.00	3429.00
278.00	3554.00
279.00	3810.00
280.00	3729.00
281.00	3826.00
282.00	3998.00
283.00	3926.00
284.00	4125.00
285.00	4063.00
286.00	4112.00
287.00	4078.00
288.00	4034.00
289.00	4205.00
290.00	4289.00
291.00	4218.00
292.00	4273.00
293.00	4392.00
294.00	4417.00
295.00	4593.00
296.00	4595.00
297.00	4587.00
298.00	4598.00
299.00	4919.00
300.00	5068.00
301.00	4992.00
302.00	5028.00
303.00	5121.00
304.00	5210.00
305.00	5445.00
306.00	5687.00
307.00	5877.00
308.00	5824.00
309.00	6063.00
310.00	6166.00
311.00	6229.00
312.00	6300.00
313.00	6295.00
314.00	6310.00
315.00	6223.00
316.00	6530.00
317.00	6450.00
318.00	6530.00
319.00	6597.00
320.00	6638.00
321.00	6792.00
322.00	6916.00
323.00	6925.00
324.00	7055.00
325.00	7141.00
326.00	7351.00
327.00	7269.00
328.00	7542.00
329.00	7841.00
330.00	7576.00
331.00	7782.00
332.00	7922.00
333.00	8212.00
334.00	8476.00
335.00	8528.00
336.00	8743.00
337.00	8771.00
338.00	8970.00
339.00	8892.00
340.00	9175.00
341.00	9282.00
342.00	9425.00
343.00	9248.00
344.00	9473.00
345.00	9535.00
346.00	9588.00
347.00	9643.00
348.00	9751.00
349.00	9934.00
350.00	10208.00
351.00	10267.00
352.00	10396.00
353.00	10621.00
354.00	11077.00
355.00	11357.00
356.00	12118.00
357.00	13173.00
358.00	14535.00
359.00	17113.00
360.00	19565.00
361.00	23328.00
362.00	27494.00
363.00	32038.00
364.00	36804.00
365.00	40214.00
366.00	43292.00
367.00	44284.00
368.00	43665.00
369.00	41140.00
370.00	37360.00
371.00	33216.00
372.00	28878.00
373.00	24978.00
374.00	21266.00
375.00	18796.00
376.00	17459.00
377.00	16082.00
378.00	15696.00
379.00	15421.00
380.00	15482.00
381.00	15274.00
382.00	15816.00
383.00	15904.00
384.00	15918.00
385.00	16100.00
386.00	16210.00
387.00	16637.00
388.00	16801.00
389.00	17077.00
390.00	17282.00
391.00	17743.00
392.00	17837.00
393.00	18117.00
394.00	18785.00
395.00	19156.00
396.00	19629.00
397.00	20072.00
398.00	21047.00
399.00	21708.00
400.00	22742.00
401.00	23683.00
402.00	24406.00
403.00	25303.00
404.00	26018.00
405.00	26149.00
406.00	26211.00
407.00	25830.00
408.00	25111.00
409.00	24914.00
410.00	24343.00
411.00	24173.00
412.00	23788.00
413.00	23567.00
414.00	23854.00
415.00	23764.00
416.00	24062.00
417.00	24465.00
418.00	25246.00
419.00	25598.00
420.00	26752.00
421.00	27857.00
422.00	28804.00
423.00	30211.00
424.00	32019.00
425.00	32867.00
426.00	34549.00
427.00	35848.00
428.00	36123.00
429.00	36205.00
430.00	36151.00
431.00	35558.00
432.00	34435.00
433.00	33863.00
434.00	32815.00
435.00	31840.00
436.00	31378.00
437.00	30900.00
438.00	30954.00
439.00	31105.00
440.00	30909.00
441.00	30835.00
442.00	31389.00
443.00	31775.00
444.00	32051.00
445.00	32302.00
446.00	33158.00
447.00	33214.00
448.00	33580.00
449.00	33810.00
450.00	34549.00
451.00	34917.00
452.00	35316.00
453.00	35962.00
454.00	36674.00
455.00	37100.00
456.00	37825.00
457.00	38847.00
458.00	40117.00
459.00	40818.00
460.00	41572.00
461.00	42394.00
462.00	43215.00
463.00	43892.00
464.00	44627.00
465.00	45023.00
466.00	45436.00
467.00	45409.00
468.00	46313.00
469.00	46721.00
470.00	46777.00
471.00	47284.00
472.00	47297.00
473.00	47446.00
474.00	48309.00
475.00	48140.00
476.00	48734.00
477.00	48637.00
478.00	49298.00
479.00	49539.00
480.00	49924.00
481.00	49916.00
482.00	49514.00
483.00	49543.00
484.00	48953.00
485.00	48612.00
486.00	47942.00
487.00	47848.00
488.00	47686.00
489.00	47707.00
490.00	48194.00
491.00	48456.00
492.00	48788.00
493.00	48745.00
494.00	49590.00
495.00	49879.00
496.00	50026.00
497.00	50093.00
498.00	50631.00
499.00	50768.00
500.00	50798.00
501.00	51324.00
502.00	51464.00
503.00	51718.00
504.00	51993.00
505.00	52390.00
506.00	52821.00
507.00	53802.00
508.00	53612.00
509.00	54156.00
510.00	55027.00
511.00	54890.00
512.00	55902.00
513.00	55674.00
514.00	55963.00
515.00	56494.00
516.00	57149.00
517.00	57506.00
518.00	57981.00
519.00	58475.00
520.00	59037.00
521.00	59777.00
522.00	60273.00
523.00	60735.00
524.00	61664.00
525.00	62383.00
526.00	63637.00
527.00	64023.00
528.00	64930.00
529.00	65253.00
530.00	66402.00
531.00	67306.00
532.00	67449.00
533.00	68657.00
534.00	69436.00
535.00	69708.00
536.00	70688.00
537.00	71181.00
538.00	71401.00
539.00	72236.00
540.00	72686.00
541.00	73125.00
542.00	73306.00
543.00	73376.00
544.00	74924.00
545.00	74598.00
546.00	75691.00
547.00	76194.00
548.00	76846.00
549.00	77271.00
550.00	78002.00
551.00	78749.00
552.00	78812.00
553.00	79485.00
554.00	79954.00
555.00	79904.00
556.00	79672.00
557.00	80511.00
558.00	80480.00
559.00	80324.00
560.00	80085.00
561.00	80206.00
562.00	79758.00
563.00	80959.00
564.00	80897.00
565.00	81180.00
566.00	81650.00
567.00	82096.00
568.00	81996.00
569.00	82683.00
570.00	82908.00
571.00	83267.00
572.00	83607.00
573.00	83426.00
574.00	84311.00
575.00	84638.00
576.00	85169.00
577.00	84849.00
578.00	85574.00
579.00	86000.00
580.00	86447.00
581.00	86514.00
582.00	87115.00
583.00	87181.00
584.00	87902.00
585.00	88430.00
586.00	88417.00
587.00	88502.00
588.00	89815.00
589.00	90212.00
590.00	90042.00
591.00	90883.00
592.00	91388.00
593.00	91164.00
594.00	92191.00
595.00	92219.00
596.00	93039.00
597.00	93739.00
598.00	93937.00
599.00	94668.00
600.00	94910.00
601.00	95415.00
602.00	95813.00
603.00	97182.00
604.00	97198.00
605.00	97623.00
606.00	98570.00
607.00	98643.00
608.00	99657.00
609.00	99931.00
610.00	100040.00
611.00	100382.00
612.00	101465.00
613.00	101896.00
614.00	102285.00
615.00	102724.00
616.00	103696.00
617.00	103337.00
618.00	104929.00
619.00	105289.00
620.00	104922.00
621.00	105979.00
622.00	106659.00
623.00	106947.00
624.00	106767.00
625.00	107660.00
626.00	108920.00
627.00	109178.00
628.00	109179.00
629.00	109631.00
630.00	109844.00
631.00	109702.00
632.00	110889.00
633.00	111675.00
634.00	111764.00
635.00	112116.00
636.00	112697.00
637.00	113456.00
638.00	113771.00
639.00	114212.00
640.00	114658.00
641.00	115158.00
642.00	116221.00
643.00	116343.00
644.00	117392.00
645.00	117861.00
646.00	117788.00
647.00	118869.00
648.00	119045.00
649.00	118922.00
650.00	119601.00
651.00	119890.00
652.00	119970.00
653.00	120596.00
654.00	120849.00
655.00	121348.00
656.00	122242.00
657.00	123085.00
658.00	122771.00
659.00	122831.00
660.00	123910.00
661.00	124271.00
662.00	124360.00
663.00	124628.00
664.00	125677.00
665.00	126363.00
666.00	127064.00
667.00	128018.00
668.00	128256.00
669.00	129784.00
670.00	130541.00
671.00	131354.00
672.00	134086.00
673.00	137381.00
674.00	138550.00
675.00	141406.00
676.00	145267.00
677.00	148395.00
678.00	151705.00
679.00	154919.00
680.00	156118.00
681.00	157915.00
682.00	158539.00
683.00	158104.00
684.00	156220.00
685.00	154285.00
686.00	151804.00
687.00	149588.00
688.00	146522.00
689.00	144903.00
690.00	143193.00
691.00	142641.00
692.00	141293.00
693.00	140360.00
694.00	140107.00
695.00	139807.00
696.00	140131.00
697.00	139649.00
698.00	140376.00
699.00	141190.00
700.00	141074.00
701.00	141192.00
702.00	141499.00
703.00	142661.00
704.00	142729.00
705.00	142357.00
706.00	143186.00
707.00	144367.00
708.00	144458.00
709.00	145143.00
710.00	145314.00
711.00	145418.00
712.00	146156.00
713.00	146610.00
714.00	146589.00
715.00	147538.00
716.00	147983.00
717.00	147372.00
718.00	148411.00
719.00	148307.00
720.00	148459.00
721.00	149795.00
722.00	149104.00
723.00	150143.00
724.00	150927.00
725.00	150639.00
726.00	150712.00
727.00	150625.00
728.00	151544.00
729.00	151980.00
730.00	152088.00
731.00	153231.00
732.00	153437.00
733.00	153352.00
734.00	153885.00
735.00	153836.00
736.00	154140.00
737.00	154507.00
738.00	155550.00
739.00	154900.00
740.00	156632.00
741.00	155858.00
742.00	155334.00
743.00	156448.00
744.00	157818.00
745.00	157665.00
746.00	157710.00
747.00	157864.00
748.00	158878.00
749.00	159156.00
750.00	160084.00
751.00	160116.00
752.00	160767.00
753.00	160812.00
754.00	162322.00
755.00	162697.00
756.00	163657.00
757.00	164488.00
758.00	164581.00
759.00	165715.00
760.00	166510.00
761.00	166932.00
762.00	166269.00
763.00	166535.00
764.00	166248.00
765.00	165744.00
766.00	165985.00
767.00	166002.00
768.00	165508.00
769.00	165618.00
770.00	165471.00
771.00	165012.00
772.00	165124.00
773.00	165453.00
774.00	164875.00
775.00	165113.00
776.00	164575.00
777.00	165531.00
778.00	165955.00
779.00	165901.00
780.00	166533.00
781.00	166141.00
782.00	166748.00
783.00	166749.00
784.00	166890.00
785.00	166894.00
786.00	167031.00
787.00	166906.00
788.00	168694.00
789.00	167363.00
790.00	168712.00
791.00	168445.00
792.00	168869.00
793.00	169498.00
794.00	169272.00
795.00	169634.00
796.00	169651.00
797.00	170216.00
798.00	171326.00
799.00	171797.00
800.00	172281.00
801.00	173715.00
802.00	174052.00
803.00	174737.00
804.00	175837.00
805.00	177543.00
806.00	177152.00
807.00	178492.00
808.00	178449.00
809.00	179017.00
810.00	178859.00
811.00	179303.00
812.00	179410.00
813.00	178296.00
814.00	177643.00
815.00	176872.00
816.00	176436.00
817.00	176352.00
818.00	175534.00
819.00	175425.00
820.00	175127.00
821.00	174733.00
822.00	174477.00
823.00	174865.00
824.00	174743.00
825.00	174760.00
826.00	176134.00
827.00	175212.00
828.00	175836.00
829.00	175668.00
830.00	175763.00
831.00	175734.00
832.00	175578.00
833.00	176334.00
834.00	177008.00
835.00	176908.00
836.00	177094.00
837.00	177611.00
838.00	178085.00
839.00	178330.00
840.00	177673.00
841.00	178559.00
842.00	178775.00
843.00	178169.00
844.00	178691.00
845.00	179981.00
846.00	179522.00
847.00	179863.00
848.00	180191.00
849.00	179835.00
850.00	181193.00
851.00	180936.00
852.00	181420.00
853.00	180803.00
854.00	181112.00
855.00	182271.00
856.00	182118.00
857.00	181911.00
858.00	182554.00
859.00	183218.00
860.00	182998.00
861.00	183224.00
862.00	184281.00
863.00	184510.00
864.00	184010.00
865.00	184907.00
866.00	185218.00
867.00	184517.00
868.00	186623.00
869.00	185493.00
870.00	187160.00
871.00	187523.00
872.00	187383.00
873.00	188093.00
874.00	188179.00
875.00	189098.00
876.00	189921.00
877.00	189945.00
878.00	192035.00
879.00	191725.00
880.00	192104.00
881.00	193242.00
882.00	194436.00
883.00	195485.00
884.00	195742.00
885.00	197012.00
886.00	198196.00
887.00	199343.00
888.00	201294.00
889.00	201576.00
890.00	203235.00
891.00	204696.00
892.00	206278.00
893.00	208319.00
894.00	209562.00
895.00	211371.00
896.00	214137.00
897.00	216354.00
898.00	218482.00
899.00	221411.00
900.00	223353.00
901.00	225524.00
902.00	229677.00
903.00	232651.00
904.00	236521.00
905.00	239054.00
906.00	242915.00
907.00	247621.00
908.00	251393.00
909.00	258168.00
910.00	263798.00
911.00	270041.00
912.00	277394.00
913.00	286166.00
914.00	295315.00
915.00	305799.00
916.00	316569.00
917.00	329897.00
918.00	343288.00
919.00	359717.00
920.00	376411.00
921.00	395353.00
922.00	416400.00
923.00	438626.00
924.00	461184.00
925.00	486960.00
926.00	513519.00
927.00	540101.00
928.00	569010.00
929.00	598207.00
930.00	625813.00
931.00	653176.00
932.00	682194.00
933.00	707755.00
934.00	731661.00
935.00	753508.00
936.00	771576.00
937.00	788822.00
938.00	800379.00
939.00	810873.00
940.00	814739.00
941.00	815650.00
942.00	813447.00
943.00	806905.00
944.00	795911.00
945.00	782312.00
946.00	763471.00
947.00	745370.00
948.00	720468.00
949.00	695612.00
950.00	669238.00
951.00	641852.00
952.00	612628.00
953.00	583839.00
954.00	553926.00
955.00	524027.00
956.00	495689.00
957.00	468808.00
958.00	441970.00
959.00	416242.00
960.00	392306.00
961.00	369879.00
962.00	349313.00
963.00	329675.00
964.00	312121.00
965.00	296222.00
966.00	280489.00
967.00	265703.00
968.00	254441.00
969.00	243100.00
970.00	233531.00
971.00	225357.00
972.00	216436.00
973.00	209570.00
974.00	203022.00
975.00	198394.00
976.00	193442.00
977.00	189990.00
978.00	187559.00
979.00	185583.00
980.00	185783.00
981.00	186339.00
982.00	188829.00
983.00	191477.00
984.00	197641.00
985.00	204905.00
986.00	213548.00
987.00	225856.00
988.00	237765.00
989.00	252127.00
990.00	267221.00
991.00	283560.00
992.00	298770.00
993.00	312847.00
994.00	324791.00
995.00	335291.00
996.00	341930.00
997.00	344925.00
998.00	342386.00
999.00	335742.00
1000.00	326038.00
1001.00	311032.00
1002.00	294871.00
1003.00	276163.00
1004.00	257472.00
1005.00	237144.00
1006.00	218980.00
1007.00	203718.00
1008.00	188616.00
1009.00	175044.00
1010.00	165609.00
1011.00	157675.00
1012.00	151287.00
1013.00	147604.00
1014.00	144005.00
1015.00	142712.00
1016.00	141287.00
1017.00	140770.00
1018.00	140419.00
1019.00	141152.00
1020.00	141719.00
1021.00	142039.00
1022.00	144096.00
1023.00	144108.00
1024.00	145848.00
