Date:	2023-08-22		
Time:	12:42		
Sample name:	MST1A		
Position:	274.000049	mm	
Sample surface:	5.713943	cm	
Tube anode:	Mo		
Tube voltage:	30	kV	
Tube current:	30	mA	
Comments	not in position		
Gain	0.060000		
peaking_time	1.500000	m-sec	
trigger_threshold	653.076172	V	
mca_bin_width	17.500000	no:	
number_mca_channels	1024.000000	no:	
gap_time	0.080000	m-sec	
trigger_peaking_time	0.060000	m-sec	
livetime	6.131088	seconds	
runtime	10.007318	seconds	
input_count_rate	67785.842126	cps	
output_count_rate	41528.807557	cps	
triggers	0	seconds	
events_in_run	0	seconds	
channel	content		
 1.00	 0.00
 2.00	 0.00
 3.00	 0.00
 4.00	 0.00
 5.00	 0.00
 6.00	 0.00
 7.00	 0.00
 8.00	 0.00
 9.00	 0.00
10.00	 0.00
11.00	 0.00
12.00	 0.00
13.00	 0.00
14.00	 0.00
15.00	 0.00
16.00	 0.00
17.00	 0.00
18.00	 0.00
19.00	 0.00
20.00	 0.00
21.00	 0.00
22.00	 0.00
23.00	 0.00
24.00	 0.00
25.00	 0.00
26.00	 0.00
27.00	 0.00
28.00	 0.00
29.00	 0.00
30.00	 0.00
31.00	 2.00
32.00	 2.00
33.00	 0.00
34.00	 2.00
35.00	 2.00
36.00	 4.00
37.00	 6.00
38.00	10.00
39.00	12.00
40.00	 9.00
41.00	32.00
42.00	33.00
43.00	50.00
44.00	63.00
45.00	98.00
46.00	136.00
47.00	194.00
48.00	218.00
49.00	292.00
50.00	358.00
51.00	464.00
52.00	560.00
53.00	672.00
54.00	777.00
55.00	954.00
56.00	1041.00
57.00	1304.00
58.00	1498.00
59.00	1601.00
60.00	1776.00
61.00	1997.00
62.00	2120.00
63.00	2283.00
64.00	2426.00
65.00	2465.00
66.00	2558.00
67.00	2659.00
68.00	2759.00
69.00	2758.00
70.00	2904.00
71.00	2777.00
72.00	2863.00
73.00	2856.00
74.00	2805.00
75.00	2828.00
76.00	2747.00
77.00	2829.00
78.00	2733.00
79.00	2737.00
80.00	2687.00
81.00	2720.00
82.00	2801.00
83.00	2712.00
84.00	2804.00
85.00	2816.00
86.00	2686.00
87.00	2595.00
88.00	2701.00
89.00	2595.00
90.00	2503.00
91.00	2352.00
92.00	2324.00
93.00	2151.00
94.00	2276.00
95.00	2090.00
96.00	2067.00
97.00	2064.00
98.00	1987.00
99.00	2052.00
100.00	1964.00
101.00	1930.00
102.00	2095.00
103.00	1998.00
104.00	1927.00
105.00	1982.00
106.00	1983.00
107.00	1881.00
108.00	1879.00
109.00	1979.00
110.00	1859.00
111.00	1862.00
112.00	1842.00
113.00	1766.00
114.00	1784.00
115.00	1733.00
116.00	1715.00
117.00	1677.00
118.00	1668.00
119.00	1547.00
120.00	1524.00
121.00	1586.00
122.00	1487.00
123.00	1530.00
124.00	1467.00
125.00	1445.00
126.00	1390.00
127.00	1413.00
128.00	1455.00
129.00	1439.00
130.00	1435.00
131.00	1439.00
132.00	1443.00
133.00	1463.00
134.00	1469.00
135.00	1425.00
136.00	1270.00
137.00	1265.00
138.00	1208.00
139.00	1160.00
140.00	1167.00
141.00	1104.00
142.00	1108.00
143.00	1045.00
144.00	1111.00
145.00	1010.00
146.00	1086.00
147.00	1079.00
148.00	1037.00
149.00	1051.00
150.00	1057.00
151.00	1020.00
152.00	1034.00
153.00	976.00
154.00	985.00
155.00	929.00
156.00	901.00
157.00	925.00
158.00	882.00
159.00	903.00
160.00	969.00
161.00	984.00
162.00	979.00
163.00	1147.00
164.00	1264.00
165.00	1433.00
166.00	1717.00
167.00	2079.00
168.00	2340.00
169.00	2528.00
170.00	2570.00
171.00	2578.00
172.00	2496.00
173.00	2188.00
174.00	1862.00
175.00	1590.00
176.00	1277.00
177.00	1112.00
178.00	1029.00
179.00	898.00
180.00	936.00
181.00	935.00
182.00	966.00
183.00	951.00
184.00	965.00
185.00	907.00
186.00	925.00
187.00	892.00
188.00	849.00
189.00	887.00
190.00	825.00
191.00	816.00
192.00	795.00
193.00	750.00
194.00	711.00
195.00	760.00
196.00	713.00
197.00	725.00
198.00	710.00
199.00	701.00
200.00	724.00
201.00	694.00
202.00	771.00
203.00	755.00
204.00	887.00
205.00	974.00
206.00	1078.00
207.00	1319.00
208.00	1608.00
209.00	1787.00
210.00	2063.00
211.00	2275.00
212.00	2312.00
213.00	2369.00
214.00	2213.00
215.00	1929.00
216.00	1698.00
217.00	1380.00
218.00	1187.00
219.00	931.00
220.00	902.00
221.00	756.00
222.00	750.00
223.00	775.00
224.00	707.00
225.00	813.00
226.00	846.00
227.00	849.00
228.00	859.00
229.00	922.00
230.00	977.00
231.00	992.00
232.00	993.00
233.00	893.00
234.00	855.00
235.00	858.00
236.00	760.00
237.00	777.00
238.00	738.00
239.00	719.00
240.00	681.00
241.00	713.00
242.00	715.00
243.00	699.00
244.00	753.00
245.00	705.00
246.00	736.00
247.00	719.00
248.00	739.00
249.00	802.00
250.00	834.00
251.00	789.00
252.00	891.00
253.00	804.00
254.00	854.00
255.00	954.00
256.00	1039.00
257.00	1104.00
258.00	1093.00
259.00	1058.00
260.00	1070.00
261.00	1070.00
262.00	1143.00
263.00	1090.00
264.00	1014.00
265.00	1048.00
266.00	955.00
267.00	915.00
268.00	1003.00
269.00	954.00
270.00	1032.00
271.00	948.00
272.00	986.00
273.00	1028.00
274.00	1098.00
275.00	1072.00
276.00	1081.00
277.00	1111.00
278.00	1131.00
279.00	1188.00
280.00	1171.00
281.00	1169.00
282.00	1238.00
283.00	1243.00
284.00	1277.00
285.00	1269.00
286.00	1350.00
287.00	1285.00
288.00	1299.00
289.00	1318.00
290.00	1310.00
291.00	1375.00
292.00	1389.00
293.00	1408.00
294.00	1388.00
295.00	1398.00
296.00	1465.00
297.00	1543.00
298.00	1504.00
299.00	1551.00
300.00	1594.00
301.00	1619.00
302.00	1679.00
303.00	1690.00
304.00	1687.00
305.00	1792.00
306.00	1768.00
307.00	1883.00
308.00	1863.00
309.00	1929.00
310.00	1941.00
311.00	1976.00
312.00	1990.00
313.00	2019.00
314.00	2102.00
315.00	2086.00
316.00	2075.00
317.00	1977.00
318.00	2139.00
319.00	2169.00
320.00	2127.00
321.00	2133.00
322.00	2213.00
323.00	2250.00
324.00	2244.00
325.00	2321.00
326.00	2345.00
327.00	2406.00
328.00	2447.00
329.00	2444.00
330.00	2572.00
331.00	2600.00
332.00	2620.00
333.00	2682.00
334.00	2627.00
335.00	2799.00
336.00	2795.00
337.00	2817.00
338.00	2843.00
339.00	2871.00
340.00	2888.00
341.00	2930.00
342.00	2940.00
343.00	2970.00
344.00	3082.00
345.00	3000.00
346.00	3041.00
347.00	3032.00
348.00	3087.00
349.00	3222.00
350.00	3304.00
351.00	3316.00
352.00	3381.00
353.00	3365.00
354.00	3498.00
355.00	3515.00
356.00	3664.00
357.00	3720.00
358.00	3883.00
359.00	4013.00
360.00	4246.00
361.00	4593.00
362.00	5173.00
363.00	5294.00
364.00	5643.00
365.00	5812.00
366.00	6086.00
367.00	6201.00
368.00	6424.00
369.00	6177.00
370.00	5928.00
371.00	5554.00
372.00	5464.00
373.00	5148.00
374.00	4862.00
375.00	4993.00
376.00	4947.00
377.00	4819.00
378.00	4795.00
379.00	4832.00
380.00	4832.00
381.00	4894.00
382.00	5103.00
383.00	5100.00
384.00	5171.00
385.00	5299.00
386.00	5190.00
387.00	5258.00
388.00	5406.00
389.00	5439.00
390.00	5669.00
391.00	5715.00
392.00	5855.00
393.00	5840.00
394.00	5983.00
395.00	6008.00
396.00	6237.00
397.00	6219.00
398.00	6396.00
399.00	6533.00
400.00	6580.00
401.00	6697.00
402.00	6778.00
403.00	6932.00
404.00	7036.00
405.00	7132.00
406.00	7156.00
407.00	7205.00
408.00	7141.00
409.00	7201.00
410.00	7293.00
411.00	7500.00
412.00	7410.00
413.00	7522.00
414.00	7547.00
415.00	7704.00
416.00	7923.00
417.00	7849.00
418.00	8020.00
419.00	8281.00
420.00	8481.00
421.00	8975.00
422.00	9393.00
423.00	10022.00
424.00	10272.00
425.00	10715.00
426.00	11082.00
427.00	11575.00
428.00	11764.00
429.00	11929.00
430.00	11645.00
431.00	11358.00
432.00	11219.00
433.00	10940.00
434.00	10415.00
435.00	10286.00
436.00	10119.00
437.00	9963.00
438.00	9922.00
439.00	9966.00
440.00	9721.00
441.00	10237.00
442.00	10179.00
443.00	10432.00
444.00	10519.00
445.00	10409.00
446.00	10535.00
447.00	10697.00
448.00	10809.00
449.00	10994.00
450.00	10975.00
451.00	11294.00
452.00	11420.00
453.00	11386.00
454.00	11592.00
455.00	11877.00
456.00	12279.00
457.00	12722.00
458.00	12884.00
459.00	13169.00
460.00	13402.00
461.00	13737.00
462.00	13855.00
463.00	14242.00
464.00	14156.00
465.00	14418.00
466.00	14339.00
467.00	14765.00
468.00	14853.00
469.00	14841.00
470.00	15121.00
471.00	15379.00
472.00	15205.00
473.00	15433.00
474.00	15704.00
475.00	15398.00
476.00	15553.00
477.00	15603.00
478.00	15711.00
479.00	15966.00
480.00	15786.00
481.00	15919.00
482.00	15932.00
483.00	15745.00
484.00	15516.00
485.00	15607.00
486.00	15496.00
487.00	15438.00
488.00	15201.00
489.00	15117.00
490.00	15093.00
491.00	15259.00
492.00	15327.00
493.00	15454.00
494.00	15523.00
495.00	15768.00
496.00	15870.00
497.00	15878.00
498.00	16046.00
499.00	16096.00
500.00	16032.00
501.00	16441.00
502.00	16352.00
503.00	16508.00
504.00	16913.00
505.00	16725.00
506.00	16880.00
507.00	17027.00
508.00	17316.00
509.00	17604.00
510.00	17333.00
511.00	17751.00
512.00	18019.00
513.00	17836.00
514.00	18006.00
515.00	18189.00
516.00	18305.00
517.00	18528.00
518.00	18634.00
519.00	18698.00
520.00	19000.00
521.00	19486.00
522.00	19379.00
523.00	19322.00
524.00	20055.00
525.00	19856.00
526.00	20145.00
527.00	20380.00
528.00	20547.00
529.00	20873.00
530.00	21445.00
531.00	21501.00
532.00	21682.00
533.00	22057.00
534.00	22228.00
535.00	22270.00
536.00	22473.00
537.00	22810.00
538.00	22867.00
539.00	23154.00
540.00	23166.00
541.00	23278.00
542.00	23523.00
543.00	23764.00
544.00	23900.00
545.00	23988.00
546.00	23959.00
547.00	24163.00
548.00	24400.00
549.00	24837.00
550.00	25104.00
551.00	24863.00
552.00	25637.00
553.00	25440.00
554.00	25749.00
555.00	25491.00
556.00	25612.00
557.00	25446.00
558.00	25641.00
559.00	25903.00
560.00	25886.00
561.00	25790.00
562.00	25878.00
563.00	25792.00
564.00	25941.00
565.00	26079.00
566.00	26267.00
567.00	26473.00
568.00	26339.00
569.00	26658.00
570.00	26640.00
571.00	26738.00
572.00	26859.00
573.00	27263.00
574.00	27025.00
575.00	27189.00
576.00	27033.00
577.00	27119.00
578.00	27195.00
579.00	27577.00
580.00	27691.00
581.00	27957.00
582.00	27748.00
583.00	28133.00
584.00	28605.00
585.00	28055.00
586.00	28505.00
587.00	28848.00
588.00	28540.00
589.00	28944.00
590.00	29240.00
591.00	29292.00
592.00	29851.00
593.00	29529.00
594.00	29711.00
595.00	29781.00
596.00	30002.00
597.00	30305.00
598.00	30334.00
599.00	30752.00
600.00	30638.00
601.00	30215.00
602.00	30979.00
603.00	31034.00
604.00	31096.00
605.00	31461.00
606.00	31410.00
607.00	31674.00
608.00	31923.00
609.00	32213.00
610.00	32349.00
611.00	32337.00
612.00	32519.00
613.00	32982.00
614.00	32630.00
615.00	32964.00
616.00	33082.00
617.00	33621.00
618.00	33520.00
619.00	34010.00
620.00	33921.00
621.00	34038.00
622.00	34214.00
623.00	34512.00
624.00	34426.00
625.00	34798.00
626.00	34906.00
627.00	34806.00
628.00	34988.00
629.00	35115.00
630.00	35329.00
631.00	35646.00
632.00	35705.00
633.00	35726.00
634.00	35775.00
635.00	36324.00
636.00	36006.00
637.00	36331.00
638.00	36455.00
639.00	37039.00
640.00	37102.00
641.00	36984.00
642.00	37522.00
643.00	37388.00
644.00	37442.00
645.00	37671.00
646.00	37880.00
647.00	38228.00
648.00	38252.00
649.00	38470.00
650.00	38865.00
651.00	38669.00
652.00	38615.00
653.00	38864.00
654.00	39286.00
655.00	39295.00
656.00	39573.00
657.00	39812.00
658.00	39484.00
659.00	39868.00
660.00	40461.00
661.00	40613.00
662.00	40883.00
663.00	40496.00
664.00	40560.00
665.00	41515.00
666.00	41291.00
667.00	41907.00
668.00	42671.00
669.00	43618.00
670.00	44939.00
671.00	45841.00
672.00	48058.00
673.00	50432.00
674.00	53357.00
675.00	56251.00
676.00	60083.00
677.00	63758.00
678.00	67007.00
679.00	69783.00
680.00	72806.00
681.00	73362.00
682.00	73291.00
683.00	72125.00
684.00	70254.00
685.00	67464.00
686.00	64307.00
687.00	61311.00
688.00	57938.00
689.00	54960.00
690.00	52174.00
691.00	50022.00
692.00	48100.00
693.00	47206.00
694.00	45982.00
695.00	45675.00
696.00	45739.00
697.00	45485.00
698.00	45162.00
699.00	45378.00
700.00	45517.00
701.00	45635.00
702.00	45740.00
703.00	45650.00
704.00	45918.00
705.00	45926.00
706.00	46277.00
707.00	46533.00
708.00	46461.00
709.00	46483.00
710.00	47122.00
711.00	46829.00
712.00	47157.00
713.00	46963.00
714.00	47267.00
715.00	47462.00
716.00	47321.00
717.00	47563.00
718.00	47897.00
719.00	47517.00
720.00	48262.00
721.00	48132.00
722.00	48259.00
723.00	48638.00
724.00	48659.00
725.00	48506.00
726.00	48943.00
727.00	48578.00
728.00	48964.00
729.00	48884.00
730.00	49069.00
731.00	49530.00
732.00	49941.00
733.00	49526.00
734.00	49632.00
735.00	50126.00
736.00	49797.00
737.00	49983.00
738.00	50046.00
739.00	50471.00
740.00	50372.00
741.00	50310.00
742.00	50433.00
743.00	50770.00
744.00	51202.00
745.00	50954.00
746.00	51220.00
747.00	51268.00
748.00	51482.00
749.00	51857.00
750.00	52302.00
751.00	52863.00
752.00	53262.00
753.00	54032.00
754.00	54303.00
755.00	55378.00
756.00	55348.00
757.00	56573.00
758.00	57145.00
759.00	57537.00
760.00	57858.00
761.00	57735.00
762.00	57656.00
763.00	57415.00
764.00	57228.00
765.00	56212.00
766.00	56184.00
767.00	55698.00
768.00	55274.00
769.00	54417.00
770.00	54058.00
771.00	54142.00
772.00	53900.00
773.00	54028.00
774.00	53691.00
775.00	53776.00
776.00	53433.00
777.00	53314.00
778.00	53290.00
779.00	53536.00
780.00	53371.00
781.00	53753.00
782.00	53855.00
783.00	53335.00
784.00	53989.00
785.00	53704.00
786.00	53711.00
787.00	53744.00
788.00	53777.00
789.00	53820.00
790.00	54362.00
791.00	54096.00
792.00	54224.00
793.00	54314.00
794.00	54389.00
795.00	54457.00
796.00	54345.00
797.00	54475.00
798.00	55028.00
799.00	55040.00
800.00	55648.00
801.00	55205.00
802.00	55649.00
803.00	55990.00
804.00	56140.00
805.00	56389.00
806.00	56867.00
807.00	57105.00
808.00	56962.00
809.00	57108.00
810.00	57463.00
811.00	57168.00
812.00	56802.00
813.00	56581.00
814.00	56514.00
815.00	56669.00
816.00	56374.00
817.00	56522.00
818.00	56227.00
819.00	56382.00
820.00	56292.00
821.00	56672.00
822.00	56318.00
823.00	56217.00
824.00	56340.00
825.00	55979.00
826.00	56505.00
827.00	56760.00
828.00	56487.00
829.00	57070.00
830.00	57037.00
831.00	56902.00
832.00	57339.00
833.00	56880.00
834.00	57352.00
835.00	57568.00
836.00	56796.00
837.00	56981.00
838.00	57173.00
839.00	57417.00
840.00	58160.00
841.00	57972.00
842.00	57286.00
843.00	57665.00
844.00	57894.00
845.00	57872.00
846.00	57735.00
847.00	57731.00
848.00	58069.00
849.00	58586.00
850.00	57953.00
851.00	57881.00
852.00	58605.00
853.00	58544.00
854.00	58627.00
855.00	58383.00
856.00	58861.00
857.00	58637.00
858.00	59007.00
859.00	58616.00
860.00	59088.00
861.00	58767.00
862.00	59471.00
863.00	59500.00
864.00	59421.00
865.00	60035.00
866.00	59881.00
867.00	59913.00
868.00	59888.00
869.00	60022.00
870.00	60615.00
871.00	60407.00
872.00	61022.00
873.00	60809.00
874.00	60910.00
875.00	60764.00
876.00	61456.00
877.00	61792.00
878.00	61896.00
879.00	62076.00
880.00	62504.00
881.00	62586.00
882.00	63070.00
883.00	63270.00
884.00	63664.00
885.00	63699.00
886.00	64065.00
887.00	64670.00
888.00	64883.00
889.00	65571.00
890.00	66203.00
891.00	66037.00
892.00	66546.00
893.00	67298.00
894.00	68451.00
895.00	68583.00
896.00	68841.00
897.00	69302.00
898.00	70778.00
899.00	71591.00
900.00	72197.00
901.00	73352.00
902.00	74201.00
903.00	75493.00
904.00	76056.00
905.00	77417.00
906.00	79026.00
907.00	80789.00
908.00	81946.00
909.00	83699.00
910.00	86000.00
911.00	88044.00
912.00	90776.00
913.00	93187.00
914.00	96036.00
915.00	99838.00
916.00	103719.00
917.00	107968.00
918.00	112636.00
919.00	117408.00
920.00	123296.00
921.00	130054.00
922.00	135689.00
923.00	143776.00
924.00	151497.00
925.00	159887.00
926.00	168303.00
927.00	177207.00
928.00	185474.00
929.00	196033.00
930.00	205672.00
931.00	214410.00
932.00	222631.00
933.00	231364.00
934.00	238872.00
935.00	246349.00
936.00	252239.00
937.00	256504.00
938.00	261054.00
939.00	262441.00
940.00	264435.00
941.00	263731.00
942.00	262994.00
943.00	259810.00
944.00	256011.00
945.00	252879.00
946.00	245802.00
947.00	240401.00
948.00	232330.00
949.00	224735.00
950.00	213967.00
951.00	205051.00
952.00	195464.00
953.00	187043.00
954.00	176582.00
955.00	168025.00
956.00	159594.00
957.00	150247.00
958.00	141292.00
959.00	133776.00
960.00	125790.00
961.00	118067.00
962.00	112117.00
963.00	106028.00
964.00	99757.00
965.00	95274.00
966.00	90390.00
967.00	85732.00
968.00	82011.00
969.00	78573.00
970.00	75345.00
971.00	72364.00
972.00	69804.00
973.00	67870.00
974.00	65604.00
975.00	64330.00
976.00	63110.00
977.00	61637.00
978.00	60960.00
979.00	59865.00
980.00	59975.00
981.00	60981.00
982.00	61057.00
983.00	62566.00
984.00	64020.00
985.00	66881.00
986.00	69524.00
987.00	73185.00
988.00	77371.00
989.00	82180.00
990.00	87410.00
991.00	91618.00
992.00	96721.00
993.00	101328.00
994.00	105812.00
995.00	108253.00
996.00	110720.00
997.00	110737.00
998.00	109465.00
999.00	108314.00
1000.00	105135.00
1001.00	99858.00
1002.00	94515.00
1003.00	88548.00
1004.00	82625.00
1005.00	76276.00
1006.00	70834.00
1007.00	65484.00
1008.00	60458.00
1009.00	57036.00
1010.00	53533.00
1011.00	51286.00
1012.00	49074.00
1013.00	47671.00
1014.00	47217.00
1015.00	46415.00
1016.00	45984.00
1017.00	45863.00
1018.00	45771.00
1019.00	45725.00
1020.00	45953.00
1021.00	46457.00
1022.00	46638.00
1023.00	46804.00
1024.00	47344.00
