Date:	2023-08-23		
Time:	18:52		
Sample name:	MI1D_E_F		
Position:	518.000049	mm	
Sample surface:	4.345823	cm	
Tube anode:	Mo		
Tube voltage:	30	kV	
Tube current:	30	mA	
Comments	not in position		
Gain	0.060000		
peaking_time	1.500000	m-sec	
trigger_threshold	653.076172	V	
mca_bin_width	17.500000	no:	
number_mca_channels	1024.000000	no:	
gap_time	0.080000	m-sec	
trigger_peaking_time	0.060000	m-sec	
livetime	6.266977	seconds	
runtime	10.007439	seconds	
input_count_rate	65206.763356	cps	
output_count_rate	40834.421804	cps	
triggers	0	seconds	
events_in_run	0	seconds	
channel	content		
 1.00	 0.00
 2.00	 0.00
 3.00	 0.00
 4.00	 0.00
 5.00	 0.00
 6.00	 0.00
 7.00	 0.00
 8.00	 0.00
 9.00	 0.00
10.00	 0.00
11.00	 0.00
12.00	 0.00
13.00	 0.00
14.00	 0.00
15.00	 0.00
16.00	 0.00
17.00	 0.00
18.00	 0.00
19.00	 0.00
20.00	 0.00
21.00	 0.00
22.00	 0.00
23.00	 0.00
24.00	 0.00
25.00	 0.00
26.00	 0.00
27.00	 0.00
28.00	 0.00
29.00	 0.00
30.00	 0.00
31.00	 2.00
32.00	 5.00
33.00	 5.00
34.00	10.00
35.00	13.00
36.00	11.00
37.00	24.00
38.00	56.00
39.00	60.00
40.00	100.00
41.00	126.00
42.00	172.00
43.00	264.00
44.00	349.00
45.00	528.00
46.00	667.00
47.00	827.00
48.00	1184.00
49.00	1488.00
50.00	1837.00
51.00	2253.00
52.00	2948.00
53.00	3375.00
54.00	4125.00
55.00	4996.00
56.00	5665.00
57.00	6577.00
58.00	7331.00
59.00	8153.00
60.00	9226.00
61.00	10034.00
62.00	10799.00
63.00	11384.00
64.00	12006.00
65.00	12668.00
66.00	13120.00
67.00	13641.00
68.00	14066.00
69.00	14046.00
70.00	14250.00
71.00	14503.00
72.00	14634.00
73.00	14435.00
74.00	14419.00
75.00	14298.00
76.00	14086.00
77.00	14065.00
78.00	13882.00
79.00	13716.00
80.00	13780.00
81.00	13882.00
82.00	13791.00
83.00	14075.00
84.00	14157.00
85.00	14177.00
86.00	14037.00
87.00	13549.00
88.00	13391.00
89.00	12763.00
90.00	12256.00
91.00	11742.00
92.00	11437.00
93.00	11194.00
94.00	10821.00
95.00	10492.00
96.00	10464.00
97.00	10625.00
98.00	10425.00
99.00	10281.00
100.00	10092.00
101.00	10053.00
102.00	9976.00
103.00	9959.00
104.00	9875.00
105.00	9674.00
106.00	9701.00
107.00	9713.00
108.00	9563.00
109.00	9590.00
110.00	9189.00
111.00	9375.00
112.00	9174.00
113.00	9032.00
114.00	8780.00
115.00	8509.00
116.00	8494.00
117.00	8507.00
118.00	8047.00
119.00	7811.00
120.00	7788.00
121.00	7687.00
122.00	7524.00
123.00	7380.00
124.00	7329.00
125.00	7217.00
126.00	7159.00
127.00	7198.00
128.00	6963.00
129.00	6873.00
130.00	7034.00
131.00	6853.00
132.00	6974.00
133.00	6732.00
134.00	6586.00
135.00	6465.00
136.00	6283.00
137.00	6188.00
138.00	5990.00
139.00	5810.00
140.00	5523.00
141.00	5491.00
142.00	5454.00
143.00	5382.00
144.00	5313.00
145.00	5201.00
146.00	5388.00
147.00	5124.00
148.00	5084.00
149.00	5023.00
150.00	5034.00
151.00	4944.00
152.00	4968.00
153.00	4799.00
154.00	4804.00
155.00	4759.00
156.00	4691.00
157.00	4556.00
158.00	4470.00
159.00	4605.00
160.00	4595.00
161.00	4822.00
162.00	5061.00
163.00	5342.00
164.00	6189.00
165.00	7024.00
166.00	8495.00
167.00	9708.00
168.00	11088.00
169.00	12472.00
170.00	12721.00
171.00	12537.00
172.00	11771.00
173.00	10532.00
174.00	8882.00
175.00	7305.00
176.00	6407.00
177.00	5454.00
178.00	4959.00
179.00	4596.00
180.00	4612.00
181.00	4729.00
182.00	4578.00
183.00	4755.00
184.00	4709.00
185.00	4584.00
186.00	4661.00
187.00	4273.00
188.00	4204.00
189.00	4052.00
190.00	3941.00
191.00	3887.00
192.00	3668.00
193.00	3678.00
194.00	3603.00
195.00	3684.00
196.00	3547.00
197.00	3516.00
198.00	3600.00
199.00	3638.00
200.00	3498.00
201.00	3627.00
202.00	3637.00
203.00	3803.00
204.00	3990.00
205.00	4447.00
206.00	4865.00
207.00	5483.00
208.00	6385.00
209.00	7366.00
210.00	8194.00
211.00	8878.00
212.00	9202.00
213.00	8878.00
214.00	8544.00
215.00	7829.00
216.00	6679.00
217.00	5900.00
218.00	4909.00
219.00	4421.00
220.00	4083.00
221.00	3765.00
222.00	3666.00
223.00	3693.00
224.00	3652.00
225.00	3638.00
226.00	3972.00
227.00	3961.00
228.00	4191.00
229.00	4378.00
230.00	4368.00
231.00	4277.00
232.00	4370.00
233.00	4074.00
234.00	3950.00
235.00	3933.00
236.00	3862.00
237.00	3764.00
238.00	3696.00
239.00	3692.00
240.00	3545.00
241.00	3627.00
242.00	3747.00
243.00	3695.00
244.00	3786.00
245.00	3582.00
246.00	3818.00
247.00	3898.00
248.00	3913.00
249.00	4016.00
250.00	4269.00
251.00	4479.00
252.00	4817.00
253.00	5207.00
254.00	5843.00
255.00	6505.00
256.00	7294.00
257.00	7729.00
258.00	8298.00
259.00	8564.00
260.00	8589.00
261.00	8201.00
262.00	7810.00
263.00	7411.00
264.00	6989.00
265.00	6500.00
266.00	6152.00
267.00	6182.00
268.00	6015.00
269.00	5866.00
270.00	5765.00
271.00	5614.00
272.00	5598.00
273.00	5600.00
274.00	5598.00
275.00	5756.00
276.00	5761.00
277.00	5868.00
278.00	6077.00
279.00	6306.00
280.00	6593.00
281.00	6707.00
282.00	6832.00
283.00	7207.00
284.00	7135.00
285.00	7287.00
286.00	7433.00
287.00	7165.00
288.00	7209.00
289.00	7109.00
290.00	7138.00
291.00	7230.00
292.00	7176.00
293.00	7291.00
294.00	7408.00
295.00	7606.00
296.00	7761.00
297.00	7869.00
298.00	8056.00
299.00	8046.00
300.00	8170.00
301.00	8509.00
302.00	8676.00
303.00	8989.00
304.00	9116.00
305.00	9465.00
306.00	9622.00
307.00	9766.00
308.00	10162.00
309.00	10265.00
310.00	10267.00
311.00	10582.00
312.00	10664.00
313.00	10812.00
314.00	10608.00
315.00	10697.00
316.00	10815.00
317.00	10983.00
318.00	11114.00
319.00	11036.00
320.00	11141.00
321.00	11372.00
322.00	11708.00
323.00	11640.00
324.00	11932.00
325.00	12061.00
326.00	12592.00
327.00	12412.00
328.00	12630.00
329.00	12751.00
330.00	13084.00
331.00	13487.00
332.00	13667.00
333.00	13673.00
334.00	14166.00
335.00	14367.00
336.00	14645.00
337.00	14818.00
338.00	15098.00
339.00	15068.00
340.00	15480.00
341.00	15711.00
342.00	15825.00
343.00	15824.00
344.00	16265.00
345.00	15922.00
346.00	16428.00
347.00	16403.00
348.00	16841.00
349.00	17053.00
350.00	17604.00
351.00	17837.00
352.00	18334.00
353.00	19484.00
354.00	21269.00
355.00	23509.00
356.00	27758.00
357.00	34384.00
358.00	44512.00
359.00	59031.00
360.00	78264.00
361.00	103860.00
362.00	133967.00
363.00	168419.00
364.00	200841.00
365.00	228796.00
366.00	246479.00
367.00	254710.00
368.00	247619.00
369.00	229846.00
370.00	201560.00
371.00	168589.00
372.00	134099.00
373.00	103552.00
374.00	78858.00
375.00	59417.00
376.00	45757.00
377.00	36818.00
378.00	32044.00
379.00	28771.00
380.00	27646.00
381.00	27009.00
382.00	26767.00
383.00	27142.00
384.00	27472.00
385.00	27789.00
386.00	28270.00
387.00	28954.00
388.00	28807.00
389.00	29414.00
390.00	29870.00
391.00	30769.00
392.00	31596.00
393.00	32434.00
394.00	33696.00
395.00	35591.00
396.00	38515.00
397.00	41113.00
398.00	45371.00
399.00	50003.00
400.00	55668.00
401.00	60592.00
402.00	65354.00
403.00	69050.00
404.00	72101.00
405.00	72078.00
406.00	69668.00
407.00	66793.00
408.00	61956.00
409.00	57646.00
410.00	52997.00
411.00	48866.00
412.00	45873.00
413.00	43858.00
414.00	41910.00
415.00	41184.00
416.00	40872.00
417.00	41196.00
418.00	42200.00
419.00	42899.00
420.00	44353.00
421.00	46150.00
422.00	48290.00
423.00	50467.00
424.00	52983.00
425.00	55564.00
426.00	57752.00
427.00	58566.00
428.00	60450.00
429.00	60431.00
430.00	59757.00
431.00	58750.00
432.00	57662.00
433.00	55547.00
434.00	54037.00
435.00	52715.00
436.00	52120.00
437.00	51374.00
438.00	51583.00
439.00	51104.00
440.00	51591.00
441.00	51804.00
442.00	52285.00
443.00	52557.00
444.00	53036.00
445.00	53753.00
446.00	54553.00
447.00	54900.00
448.00	55734.00
449.00	55947.00
450.00	56862.00
451.00	57450.00
452.00	58749.00
453.00	59557.00
454.00	60922.00
455.00	61978.00
456.00	63307.00
457.00	64315.00
458.00	66371.00
459.00	66751.00
460.00	69074.00
461.00	69820.00
462.00	71571.00
463.00	72592.00
464.00	73469.00
465.00	74886.00
466.00	75613.00
467.00	76122.00
468.00	76510.00
469.00	77070.00
470.00	77739.00
471.00	78021.00
472.00	78775.00
473.00	79180.00
474.00	79594.00
475.00	79533.00
476.00	80267.00
477.00	81540.00
478.00	81622.00
479.00	81650.00
480.00	81418.00
481.00	81877.00
482.00	81433.00
483.00	81546.00
484.00	80801.00
485.00	79728.00
486.00	79081.00
487.00	78490.00
488.00	78097.00
489.00	78095.00
490.00	78147.00
491.00	78904.00
492.00	78969.00
493.00	79790.00
494.00	79879.00
495.00	81249.00
496.00	81493.00
497.00	81326.00
498.00	82534.00
499.00	82487.00
500.00	83157.00
501.00	83799.00
502.00	84846.00
503.00	84652.00
504.00	85709.00
505.00	86466.00
506.00	86993.00
507.00	87999.00
508.00	88265.00
509.00	89653.00
510.00	89566.00
511.00	91196.00
512.00	91245.00
513.00	91437.00
514.00	92519.00
515.00	93174.00
516.00	94351.00
517.00	94767.00
518.00	95604.00
519.00	96887.00
520.00	97268.00
521.00	98854.00
522.00	99271.00
523.00	100057.00
524.00	101929.00
525.00	103209.00
526.00	104518.00
527.00	105478.00
528.00	106146.00
529.00	108020.00
530.00	108993.00
531.00	110138.00
532.00	111886.00
533.00	112977.00
534.00	114003.00
535.00	115322.00
536.00	116043.00
537.00	117439.00
538.00	117840.00
539.00	119098.00
540.00	119478.00
541.00	120169.00
542.00	120609.00
543.00	122220.00
544.00	122707.00
545.00	123766.00
546.00	124072.00
547.00	125525.00
548.00	125938.00
549.00	126911.00
550.00	127715.00
551.00	129363.00
552.00	129729.00
553.00	130210.00
554.00	131246.00
555.00	131565.00
556.00	131593.00
557.00	131565.00
558.00	131802.00
559.00	131903.00
560.00	132140.00
561.00	130838.00
562.00	132178.00
563.00	131943.00
564.00	132343.00
565.00	133090.00
566.00	133736.00
567.00	135147.00
568.00	135641.00
569.00	135659.00
570.00	136453.00
571.00	137217.00
572.00	137304.00
573.00	137566.00
574.00	138141.00
575.00	138894.00
576.00	139181.00
577.00	139750.00
578.00	140642.00
579.00	141048.00
580.00	140947.00
581.00	141762.00
582.00	142281.00
583.00	143694.00
584.00	144234.00
585.00	144197.00
586.00	145325.00
587.00	145588.00
588.00	147065.00
589.00	147290.00
590.00	147585.00
591.00	149782.00
592.00	149462.00
593.00	151246.00
594.00	151073.00
595.00	151909.00
596.00	152726.00
597.00	153473.00
598.00	154926.00
599.00	154654.00
600.00	155911.00
601.00	156889.00
602.00	157982.00
603.00	158414.00
604.00	158704.00
605.00	159867.00
606.00	160729.00
607.00	161411.00
608.00	163171.00
609.00	164321.00
610.00	163193.00
611.00	164722.00
612.00	165350.00
613.00	167538.00
614.00	167481.00
615.00	168715.00
616.00	169282.00
617.00	169365.00
618.00	171299.00
619.00	172478.00
620.00	172635.00
621.00	172918.00
622.00	174460.00
623.00	175692.00
624.00	175743.00
625.00	176184.00
626.00	177627.00
627.00	178684.00
628.00	178932.00
629.00	179094.00
630.00	180410.00
631.00	180928.00
632.00	181549.00
633.00	182134.00
634.00	182901.00
635.00	184048.00
636.00	183751.00
637.00	185435.00
638.00	186026.00
639.00	186698.00
640.00	187256.00
641.00	188519.00
642.00	189490.00
643.00	191194.00
644.00	190501.00
645.00	190881.00
646.00	192425.00
647.00	193579.00
648.00	193748.00
649.00	193428.00
650.00	195534.00
651.00	195982.00
652.00	197209.00
653.00	196807.00
654.00	198096.00
655.00	198652.00
656.00	199675.00
657.00	199425.00
658.00	200640.00
659.00	201773.00
660.00	201672.00
661.00	203308.00
662.00	204188.00
663.00	204510.00
664.00	205067.00
665.00	206041.00
666.00	207091.00
667.00	207888.00
668.00	210012.00
669.00	210885.00
670.00	213093.00
671.00	214709.00
672.00	217750.00
673.00	221128.00
674.00	224089.00
675.00	228372.00
676.00	233747.00
677.00	239027.00
678.00	244167.00
679.00	247504.00
680.00	249678.00
681.00	251453.00
682.00	253270.00
683.00	252386.00
684.00	249985.00
685.00	248094.00
686.00	244630.00
687.00	241780.00
688.00	238713.00
689.00	235850.00
690.00	231969.00
691.00	230284.00
692.00	229965.00
693.00	228886.00
694.00	228051.00
695.00	227916.00
696.00	229045.00
697.00	228863.00
698.00	228915.00
699.00	230597.00
700.00	230144.00
701.00	231265.00
702.00	231645.00
703.00	232837.00
704.00	232757.00
705.00	233556.00
706.00	233791.00
707.00	235977.00
708.00	236673.00
709.00	236876.00
710.00	236969.00
711.00	237610.00
712.00	238374.00
713.00	239661.00
714.00	239641.00
715.00	240474.00
716.00	240999.00
717.00	241614.00
718.00	241904.00
719.00	243373.00
720.00	243754.00
721.00	243905.00
722.00	243834.00
723.00	245906.00
724.00	246012.00
725.00	246471.00
726.00	247232.00
727.00	247794.00
728.00	248121.00
729.00	248466.00
730.00	249765.00
731.00	250455.00
732.00	250324.00
733.00	251156.00
734.00	251786.00
735.00	251697.00
736.00	252295.00
737.00	252919.00
738.00	253878.00
739.00	253124.00
740.00	254295.00
741.00	254466.00
742.00	256152.00
743.00	256390.00
744.00	256393.00
745.00	256782.00
746.00	257337.00
747.00	259167.00
748.00	259010.00
749.00	259452.00
750.00	260741.00
751.00	261676.00
752.00	262431.00
753.00	263185.00
754.00	264617.00
755.00	265195.00
756.00	266594.00
757.00	268418.00
758.00	269058.00
759.00	268444.00
760.00	269492.00
761.00	271339.00
762.00	270737.00
763.00	270520.00
764.00	270679.00
765.00	269841.00
766.00	270246.00
767.00	270065.00
768.00	269648.00
769.00	270377.00
770.00	268703.00
771.00	268642.00
772.00	269234.00
773.00	270344.00
774.00	269152.00
775.00	270455.00
776.00	269565.00
777.00	270343.00
778.00	271057.00
779.00	271379.00
780.00	270170.00
781.00	272284.00
782.00	272834.00
783.00	272202.00
784.00	274087.00
785.00	273087.00
786.00	273393.00
787.00	274421.00
788.00	274180.00
789.00	274336.00
790.00	274596.00
791.00	275553.00
792.00	276041.00
793.00	276283.00
794.00	276653.00
795.00	277447.00
796.00	277370.00
797.00	277567.00
798.00	278437.00
799.00	279299.00
800.00	279575.00
801.00	281044.00
802.00	279884.00
803.00	281071.00
804.00	283324.00
805.00	283300.00
806.00	283958.00
807.00	284053.00
808.00	284002.00
809.00	285303.00
810.00	286630.00
811.00	286038.00
812.00	285631.00
813.00	286190.00
814.00	286410.00
815.00	286114.00
816.00	285590.00
817.00	286124.00
818.00	284876.00
819.00	284958.00
820.00	285346.00
821.00	285080.00
822.00	285974.00
823.00	285916.00
824.00	285640.00
825.00	285984.00
826.00	287187.00
827.00	287125.00
828.00	289166.00
829.00	288049.00
830.00	288206.00
831.00	287960.00
832.00	289446.00
833.00	289921.00
834.00	290598.00
835.00	290302.00
836.00	291066.00
837.00	291844.00
838.00	291189.00
839.00	290972.00
840.00	293196.00
841.00	293035.00
842.00	293064.00
843.00	292955.00
844.00	293252.00
845.00	295176.00
846.00	293992.00
847.00	295314.00
848.00	295178.00
849.00	295044.00
850.00	296397.00
851.00	297340.00
852.00	296128.00
853.00	297534.00
854.00	297322.00
855.00	297373.00
856.00	298991.00
857.00	298086.00
858.00	298843.00
859.00	299475.00
860.00	301617.00
861.00	301429.00
862.00	301297.00
863.00	302433.00
864.00	303285.00
865.00	303418.00
866.00	303053.00
867.00	304227.00
868.00	305136.00
869.00	306140.00
870.00	306577.00
871.00	306749.00
872.00	308458.00
873.00	308665.00
874.00	309670.00
875.00	310676.00
876.00	313278.00
877.00	313277.00
878.00	313266.00
879.00	315555.00
880.00	316636.00
881.00	317252.00
882.00	318758.00
883.00	320615.00
884.00	322504.00
885.00	324409.00
886.00	326007.00
887.00	327672.00
888.00	329921.00
889.00	331424.00
890.00	332686.00
891.00	336973.00
892.00	338741.00
893.00	341098.00
894.00	344900.00
895.00	347319.00
896.00	349762.00
897.00	354607.00
898.00	356498.00
899.00	361663.00
900.00	365323.00
901.00	371122.00
902.00	375428.00
903.00	381833.00
904.00	386856.00
905.00	393789.00
906.00	399901.00
907.00	407788.00
908.00	415805.00
909.00	424745.00
910.00	435876.00
911.00	446281.00
912.00	458284.00
913.00	471835.00
914.00	487219.00
915.00	506361.00
916.00	524618.00
917.00	544685.00
918.00	568473.00
919.00	596256.00
920.00	625072.00
921.00	656121.00
922.00	689243.00
923.00	729109.00
924.00	767241.00
925.00	808662.00
926.00	852933.00
927.00	897936.00
928.00	946220.00
929.00	992507.00
930.00	1041797.00
931.00	1086172.00
932.00	1129252.00
933.00	1171684.00
934.00	1213416.00
935.00	1246144.00
936.00	1276861.00
937.00	1303967.00
938.00	1325219.00
939.00	1338366.00
940.00	1343716.00
941.00	1344590.00
942.00	1337267.00
943.00	1325064.00
944.00	1308884.00
945.00	1281840.00
946.00	1252775.00
947.00	1218981.00
948.00	1180192.00
949.00	1138253.00
950.00	1093846.00
951.00	1045447.00
952.00	998165.00
953.00	948846.00
954.00	901243.00
955.00	852814.00
956.00	805018.00
957.00	762092.00
958.00	717584.00
959.00	676604.00
960.00	638143.00
961.00	602874.00
962.00	567564.00
963.00	537587.00
964.00	509337.00
965.00	483707.00
966.00	457754.00
967.00	434864.00
968.00	416146.00
969.00	398391.00
970.00	382522.00
971.00	367511.00
972.00	355050.00
973.00	342603.00
974.00	333909.00
975.00	326037.00
976.00	317813.00
977.00	311674.00
978.00	309189.00
979.00	305448.00
980.00	304758.00
981.00	305738.00
982.00	310181.00
983.00	316510.00
984.00	324873.00
985.00	336655.00
986.00	352636.00
987.00	371141.00
988.00	392745.00
989.00	416743.00
990.00	441942.00
991.00	468175.00
992.00	492050.00
993.00	517295.00
994.00	537458.00
995.00	553006.00
996.00	562984.00
997.00	566085.00
998.00	561386.00
999.00	551620.00
1000.00	534372.00
1001.00	510358.00
1002.00	482906.00
1003.00	451958.00
1004.00	419937.00
1005.00	387570.00
1006.00	359076.00
1007.00	331002.00
1008.00	307331.00
1009.00	287146.00
1010.00	270352.00
1011.00	258105.00
1012.00	248991.00
1013.00	242593.00
1014.00	237550.00
1015.00	235336.00
1016.00	232727.00
1017.00	232163.00
1018.00	232635.00
1019.00	232361.00
1020.00	233762.00
1021.00	234189.00
1022.00	236975.00
1023.00	237759.00
1024.00	240269.00
